# E (eV)  ldosup(E)  ldosdw(E) pdosup(E)  pdosdw(E) 
  -6.328  0.118E-05  0.118E-05  0.118E-05  0.118E-05
  -6.318  0.182E-05  0.182E-05  0.182E-05  0.182E-05
  -6.308  0.279E-05  0.279E-05  0.279E-05  0.279E-05
  -6.298  0.422E-05  0.422E-05  0.422E-05  0.422E-05
  -6.288  0.632E-05  0.632E-05  0.632E-05  0.632E-05
  -6.278  0.935E-05  0.935E-05  0.935E-05  0.935E-05
  -6.268  0.137E-04  0.137E-04  0.137E-04  0.137E-04
  -6.258  0.198E-04  0.198E-04  0.198E-04  0.198E-04
  -6.248  0.284E-04  0.284E-04  0.284E-04  0.284E-04
  -6.238  0.403E-04  0.403E-04  0.403E-04  0.403E-04
  -6.228  0.566E-04  0.566E-04  0.566E-04  0.566E-04
  -6.218  0.785E-04  0.785E-04  0.785E-04  0.785E-04
  -6.208  0.108E-03  0.108E-03  0.108E-03  0.108E-03
  -6.198  0.146E-03  0.146E-03  0.146E-03  0.146E-03
  -6.188  0.197E-03  0.197E-03  0.197E-03  0.197E-03
  -6.178  0.261E-03  0.261E-03  0.261E-03  0.261E-03
  -6.168  0.343E-03  0.343E-03  0.343E-03  0.343E-03
  -6.158  0.446E-03  0.446E-03  0.446E-03  0.446E-03
  -6.148  0.574E-03  0.574E-03  0.574E-03  0.574E-03
  -6.138  0.731E-03  0.731E-03  0.731E-03  0.731E-03
  -6.128  0.920E-03  0.920E-03  0.920E-03  0.920E-03
  -6.118  0.115E-02  0.115E-02  0.115E-02  0.115E-02
  -6.108  0.141E-02  0.141E-02  0.141E-02  0.141E-02
  -6.098  0.172E-02  0.172E-02  0.172E-02  0.172E-02
  -6.088  0.208E-02  0.208E-02  0.208E-02  0.208E-02
  -6.078  0.248E-02  0.248E-02  0.248E-02  0.248E-02
  -6.068  0.292E-02  0.292E-02  0.292E-02  0.292E-02
  -6.058  0.341E-02  0.341E-02  0.341E-02  0.341E-02
  -6.048  0.394E-02  0.394E-02  0.394E-02  0.394E-02
  -6.038  0.450E-02  0.450E-02  0.450E-02  0.450E-02
  -6.028  0.508E-02  0.508E-02  0.508E-02  0.508E-02
  -6.018  0.568E-02  0.568E-02  0.568E-02  0.568E-02
  -6.008  0.629E-02  0.629E-02  0.629E-02  0.629E-02
  -5.998  0.688E-02  0.688E-02  0.688E-02  0.688E-02
  -5.988  0.744E-02  0.744E-02  0.744E-02  0.744E-02
  -5.978  0.797E-02  0.797E-02  0.797E-02  0.797E-02
  -5.968  0.844E-02  0.844E-02  0.844E-02  0.844E-02
  -5.958  0.885E-02  0.885E-02  0.885E-02  0.885E-02
  -5.948  0.918E-02  0.918E-02  0.918E-02  0.918E-02
  -5.938  0.942E-02  0.942E-02  0.942E-02  0.942E-02
  -5.928  0.957E-02  0.957E-02  0.957E-02  0.957E-02
  -5.918  0.962E-02  0.962E-02  0.962E-02  0.962E-02
  -5.908  0.958E-02  0.958E-02  0.958E-02  0.958E-02
  -5.898  0.945E-02  0.945E-02  0.945E-02  0.945E-02
  -5.888  0.924E-02  0.924E-02  0.924E-02  0.924E-02
  -5.878  0.897E-02  0.897E-02  0.897E-02  0.897E-02
  -5.868  0.865E-02  0.865E-02  0.865E-02  0.865E-02
  -5.858  0.830E-02  0.830E-02  0.830E-02  0.830E-02
  -5.848  0.795E-02  0.795E-02  0.795E-02  0.795E-02
  -5.838  0.764E-02  0.764E-02  0.764E-02  0.764E-02
  -5.828  0.738E-02  0.738E-02  0.738E-02  0.738E-02
  -5.818  0.721E-02  0.721E-02  0.721E-02  0.721E-02
  -5.808  0.717E-02  0.717E-02  0.717E-02  0.717E-02
  -5.798  0.729E-02  0.729E-02  0.729E-02  0.729E-02
  -5.788  0.761E-02  0.761E-02  0.761E-02  0.761E-02
  -5.778  0.817E-02  0.817E-02  0.817E-02  0.817E-02
  -5.768  0.900E-02  0.900E-02  0.900E-02  0.900E-02
  -5.758  0.101E-01  0.101E-01  0.101E-01  0.101E-01
  -5.748  0.116E-01  0.116E-01  0.116E-01  0.116E-01
  -5.738  0.134E-01  0.134E-01  0.134E-01  0.134E-01
  -5.728  0.157E-01  0.157E-01  0.157E-01  0.157E-01
  -5.718  0.183E-01  0.183E-01  0.183E-01  0.183E-01
  -5.708  0.213E-01  0.213E-01  0.213E-01  0.213E-01
  -5.698  0.247E-01  0.247E-01  0.247E-01  0.247E-01
  -5.688  0.285E-01  0.285E-01  0.285E-01  0.285E-01
  -5.678  0.326E-01  0.326E-01  0.326E-01  0.326E-01
  -5.668  0.371E-01  0.371E-01  0.371E-01  0.371E-01
  -5.658  0.418E-01  0.418E-01  0.418E-01  0.418E-01
  -5.648  0.467E-01  0.467E-01  0.467E-01  0.467E-01
  -5.638  0.517E-01  0.517E-01  0.517E-01  0.517E-01
  -5.628  0.567E-01  0.567E-01  0.567E-01  0.567E-01
  -5.618  0.617E-01  0.617E-01  0.617E-01  0.617E-01
  -5.608  0.666E-01  0.666E-01  0.666E-01  0.666E-01
  -5.598  0.712E-01  0.712E-01  0.712E-01  0.712E-01
  -5.588  0.756E-01  0.756E-01  0.756E-01  0.756E-01
  -5.578  0.795E-01  0.795E-01  0.795E-01  0.795E-01
  -5.568  0.830E-01  0.830E-01  0.830E-01  0.830E-01
  -5.558  0.860E-01  0.860E-01  0.860E-01  0.860E-01
  -5.548  0.883E-01  0.883E-01  0.883E-01  0.883E-01
  -5.538  0.901E-01  0.901E-01  0.901E-01  0.901E-01
  -5.528  0.913E-01  0.913E-01  0.913E-01  0.913E-01
  -5.518  0.919E-01  0.919E-01  0.919E-01  0.919E-01
  -5.508  0.918E-01  0.918E-01  0.918E-01  0.918E-01
  -5.498  0.911E-01  0.911E-01  0.911E-01  0.911E-01
  -5.488  0.899E-01  0.899E-01  0.899E-01  0.899E-01
  -5.478  0.881E-01  0.881E-01  0.881E-01  0.881E-01
  -5.468  0.857E-01  0.857E-01  0.857E-01  0.857E-01
  -5.458  0.829E-01  0.829E-01  0.829E-01  0.829E-01
  -5.448  0.797E-01  0.797E-01  0.797E-01  0.797E-01
  -5.438  0.761E-01  0.761E-01  0.761E-01  0.761E-01
  -5.428  0.722E-01  0.722E-01  0.722E-01  0.722E-01
  -5.418  0.680E-01  0.680E-01  0.680E-01  0.680E-01
  -5.408  0.636E-01  0.636E-01  0.636E-01  0.636E-01
  -5.398  0.591E-01  0.591E-01  0.591E-01  0.591E-01
  -5.388  0.545E-01  0.545E-01  0.545E-01  0.545E-01
  -5.378  0.499E-01  0.499E-01  0.499E-01  0.499E-01
  -5.368  0.454E-01  0.454E-01  0.454E-01  0.454E-01
  -5.358  0.409E-01  0.409E-01  0.409E-01  0.409E-01
  -5.348  0.365E-01  0.365E-01  0.365E-01  0.365E-01
  -5.338  0.324E-01  0.324E-01  0.324E-01  0.324E-01
  -5.328  0.285E-01  0.285E-01  0.285E-01  0.285E-01
  -5.318  0.249E-01  0.249E-01  0.249E-01  0.249E-01
  -5.308  0.215E-01  0.215E-01  0.215E-01  0.215E-01
  -5.298  0.185E-01  0.185E-01  0.185E-01  0.185E-01
  -5.288  0.158E-01  0.158E-01  0.158E-01  0.158E-01
  -5.278  0.135E-01  0.135E-01  0.135E-01  0.135E-01
  -5.268  0.115E-01  0.115E-01  0.115E-01  0.115E-01
  -5.258  0.986E-02  0.986E-02  0.986E-02  0.986E-02
  -5.248  0.857E-02  0.857E-02  0.857E-02  0.857E-02
  -5.238  0.763E-02  0.763E-02  0.763E-02  0.763E-02
  -5.228  0.704E-02  0.704E-02  0.704E-02  0.704E-02
  -5.218  0.681E-02  0.681E-02  0.681E-02  0.681E-02
  -5.208  0.694E-02  0.694E-02  0.694E-02  0.694E-02
  -5.198  0.744E-02  0.744E-02  0.744E-02  0.744E-02
  -5.188  0.833E-02  0.833E-02  0.833E-02  0.833E-02
  -5.178  0.962E-02  0.962E-02  0.962E-02  0.962E-02
  -5.168  0.113E-01  0.113E-01  0.113E-01  0.113E-01
  -5.158  0.135E-01  0.135E-01  0.135E-01  0.135E-01
  -5.148  0.160E-01  0.160E-01  0.160E-01  0.160E-01
  -5.138  0.191E-01  0.191E-01  0.191E-01  0.191E-01
  -5.128  0.225E-01  0.225E-01  0.225E-01  0.225E-01
  -5.118  0.264E-01  0.264E-01  0.264E-01  0.264E-01
  -5.108  0.307E-01  0.307E-01  0.307E-01  0.307E-01
  -5.098  0.354E-01  0.354E-01  0.354E-01  0.354E-01
  -5.088  0.403E-01  0.403E-01  0.403E-01  0.403E-01
  -5.078  0.455E-01  0.455E-01  0.455E-01  0.455E-01
  -5.068  0.508E-01  0.508E-01  0.508E-01  0.508E-01
  -5.058  0.561E-01  0.561E-01  0.561E-01  0.561E-01
  -5.048  0.613E-01  0.613E-01  0.613E-01  0.613E-01
  -5.038  0.663E-01  0.663E-01  0.663E-01  0.663E-01
  -5.028  0.709E-01  0.709E-01  0.709E-01  0.709E-01
  -5.018  0.750E-01  0.750E-01  0.750E-01  0.750E-01
  -5.008  0.785E-01  0.785E-01  0.785E-01  0.785E-01
  -4.998  0.813E-01  0.813E-01  0.813E-01  0.813E-01
  -4.988  0.833E-01  0.833E-01  0.833E-01  0.833E-01
  -4.978  0.845E-01  0.845E-01  0.845E-01  0.845E-01
  -4.968  0.847E-01  0.847E-01  0.847E-01  0.847E-01
  -4.958  0.841E-01  0.841E-01  0.841E-01  0.841E-01
  -4.948  0.827E-01  0.827E-01  0.827E-01  0.827E-01
  -4.938  0.805E-01  0.805E-01  0.805E-01  0.805E-01
  -4.928  0.775E-01  0.775E-01  0.775E-01  0.775E-01
  -4.918  0.741E-01  0.741E-01  0.741E-01  0.741E-01
  -4.908  0.702E-01  0.702E-01  0.702E-01  0.702E-01
  -4.898  0.661E-01  0.661E-01  0.661E-01  0.661E-01
  -4.888  0.618E-01  0.618E-01  0.618E-01  0.618E-01
  -4.878  0.577E-01  0.577E-01  0.577E-01  0.577E-01
  -4.868  0.538E-01  0.538E-01  0.538E-01  0.538E-01
  -4.858  0.504E-01  0.504E-01  0.504E-01  0.504E-01
  -4.848  0.477E-01  0.477E-01  0.477E-01  0.477E-01
  -4.838  0.457E-01  0.457E-01  0.457E-01  0.457E-01
  -4.828  0.446E-01  0.446E-01  0.446E-01  0.446E-01
  -4.818  0.445E-01  0.445E-01  0.445E-01  0.445E-01
  -4.808  0.456E-01  0.456E-01  0.456E-01  0.456E-01
  -4.798  0.479E-01  0.479E-01  0.479E-01  0.479E-01
  -4.788  0.515E-01  0.515E-01  0.515E-01  0.515E-01
  -4.778  0.564E-01  0.564E-01  0.564E-01  0.564E-01
  -4.768  0.625E-01  0.625E-01  0.625E-01  0.625E-01
  -4.758  0.699E-01  0.699E-01  0.699E-01  0.699E-01
  -4.748  0.784E-01  0.784E-01  0.784E-01  0.784E-01
  -4.738  0.880E-01  0.880E-01  0.880E-01  0.880E-01
  -4.728  0.984E-01  0.984E-01  0.984E-01  0.984E-01
  -4.718  0.109E+00  0.109E+00  0.109E+00  0.109E+00
  -4.708  0.121E+00  0.121E+00  0.121E+00  0.121E+00
  -4.698  0.133E+00  0.133E+00  0.133E+00  0.133E+00
  -4.688  0.144E+00  0.144E+00  0.144E+00  0.144E+00
  -4.678  0.156E+00  0.156E+00  0.156E+00  0.156E+00
  -4.668  0.166E+00  0.166E+00  0.166E+00  0.166E+00
  -4.658  0.176E+00  0.176E+00  0.176E+00  0.176E+00
  -4.648  0.184E+00  0.184E+00  0.184E+00  0.184E+00
  -4.638  0.191E+00  0.191E+00  0.191E+00  0.191E+00
  -4.628  0.197E+00  0.197E+00  0.197E+00  0.197E+00
  -4.618  0.201E+00  0.201E+00  0.201E+00  0.201E+00
  -4.608  0.202E+00  0.202E+00  0.202E+00  0.202E+00
  -4.598  0.202E+00  0.202E+00  0.202E+00  0.202E+00
  -4.588  0.200E+00  0.200E+00  0.200E+00  0.200E+00
  -4.578  0.196E+00  0.196E+00  0.196E+00  0.196E+00
  -4.568  0.191E+00  0.191E+00  0.191E+00  0.191E+00
  -4.558  0.183E+00  0.183E+00  0.183E+00  0.183E+00
  -4.548  0.175E+00  0.175E+00  0.175E+00  0.175E+00
  -4.538  0.165E+00  0.165E+00  0.165E+00  0.165E+00
  -4.528  0.155E+00  0.155E+00  0.155E+00  0.155E+00
  -4.518  0.143E+00  0.143E+00  0.143E+00  0.143E+00
  -4.508  0.132E+00  0.132E+00  0.132E+00  0.132E+00
  -4.498  0.120E+00  0.120E+00  0.120E+00  0.120E+00
  -4.488  0.108E+00  0.108E+00  0.108E+00  0.108E+00
  -4.478  0.967E-01  0.967E-01  0.967E-01  0.967E-01
  -4.468  0.857E-01  0.857E-01  0.857E-01  0.857E-01
  -4.458  0.753E-01  0.753E-01  0.753E-01  0.753E-01
  -4.448  0.655E-01  0.655E-01  0.655E-01  0.655E-01
  -4.438  0.565E-01  0.565E-01  0.565E-01  0.565E-01
  -4.428  0.483E-01  0.483E-01  0.483E-01  0.483E-01
  -4.418  0.409E-01  0.409E-01  0.409E-01  0.409E-01
  -4.408  0.343E-01  0.343E-01  0.343E-01  0.343E-01
  -4.398  0.286E-01  0.286E-01  0.286E-01  0.286E-01
  -4.388  0.236E-01  0.236E-01  0.236E-01  0.236E-01
  -4.378  0.193E-01  0.193E-01  0.193E-01  0.193E-01
  -4.368  0.156E-01  0.156E-01  0.156E-01  0.156E-01
  -4.358  0.125E-01  0.125E-01  0.125E-01  0.125E-01
  -4.348  0.100E-01  0.100E-01  0.100E-01  0.100E-01
  -4.338  0.794E-02  0.794E-02  0.794E-02  0.794E-02
  -4.328  0.627E-02  0.627E-02  0.627E-02  0.627E-02
  -4.318  0.497E-02  0.497E-02  0.497E-02  0.497E-02
  -4.308  0.397E-02  0.397E-02  0.397E-02  0.397E-02
  -4.298  0.323E-02  0.323E-02  0.323E-02  0.323E-02
  -4.288  0.273E-02  0.273E-02  0.273E-02  0.273E-02
  -4.278  0.244E-02  0.244E-02  0.244E-02  0.244E-02
  -4.268  0.234E-02  0.234E-02  0.234E-02  0.234E-02
  -4.258  0.240E-02  0.240E-02  0.240E-02  0.240E-02
  -4.248  0.264E-02  0.264E-02  0.264E-02  0.264E-02
  -4.238  0.304E-02  0.304E-02  0.304E-02  0.304E-02
  -4.228  0.361E-02  0.361E-02  0.361E-02  0.361E-02
  -4.218  0.435E-02  0.435E-02  0.435E-02  0.435E-02
  -4.208  0.527E-02  0.527E-02  0.527E-02  0.527E-02
  -4.198  0.638E-02  0.638E-02  0.638E-02  0.638E-02
  -4.188  0.767E-02  0.767E-02  0.767E-02  0.767E-02
  -4.178  0.917E-02  0.917E-02  0.917E-02  0.917E-02
  -4.168  0.109E-01  0.109E-01  0.109E-01  0.109E-01
  -4.158  0.127E-01  0.127E-01  0.127E-01  0.127E-01
  -4.148  0.148E-01  0.148E-01  0.148E-01  0.148E-01
  -4.138  0.171E-01  0.171E-01  0.171E-01  0.171E-01
  -4.128  0.195E-01  0.195E-01  0.195E-01  0.195E-01
  -4.118  0.221E-01  0.221E-01  0.221E-01  0.221E-01
  -4.108  0.248E-01  0.248E-01  0.248E-01  0.248E-01
  -4.098  0.276E-01  0.276E-01  0.276E-01  0.276E-01
  -4.088  0.304E-01  0.304E-01  0.304E-01  0.304E-01
  -4.078  0.334E-01  0.334E-01  0.334E-01  0.334E-01
  -4.068  0.364E-01  0.364E-01  0.364E-01  0.364E-01
  -4.058  0.395E-01  0.395E-01  0.395E-01  0.395E-01
  -4.048  0.426E-01  0.426E-01  0.426E-01  0.426E-01
  -4.038  0.459E-01  0.459E-01  0.459E-01  0.459E-01
  -4.028  0.493E-01  0.493E-01  0.493E-01  0.493E-01
  -4.018  0.529E-01  0.529E-01  0.529E-01  0.529E-01
  -4.008  0.567E-01  0.567E-01  0.567E-01  0.567E-01
  -3.998  0.608E-01  0.608E-01  0.608E-01  0.608E-01
  -3.988  0.653E-01  0.653E-01  0.653E-01  0.653E-01
  -3.978  0.702E-01  0.702E-01  0.702E-01  0.702E-01
  -3.968  0.756E-01  0.756E-01  0.756E-01  0.756E-01
  -3.958  0.815E-01  0.815E-01  0.815E-01  0.815E-01
  -3.948  0.880E-01  0.880E-01  0.880E-01  0.880E-01
  -3.938  0.950E-01  0.950E-01  0.950E-01  0.950E-01
  -3.928  0.103E+00  0.103E+00  0.103E+00  0.103E+00
  -3.918  0.110E+00  0.110E+00  0.110E+00  0.110E+00
  -3.908  0.119E+00  0.119E+00  0.119E+00  0.119E+00
  -3.898  0.127E+00  0.127E+00  0.127E+00  0.127E+00
  -3.888  0.136E+00  0.136E+00  0.136E+00  0.136E+00
  -3.878  0.144E+00  0.144E+00  0.144E+00  0.144E+00
  -3.868  0.152E+00  0.152E+00  0.152E+00  0.152E+00
  -3.858  0.160E+00  0.160E+00  0.160E+00  0.160E+00
  -3.848  0.168E+00  0.168E+00  0.168E+00  0.168E+00
  -3.838  0.174E+00  0.174E+00  0.174E+00  0.174E+00
  -3.828  0.180E+00  0.180E+00  0.180E+00  0.180E+00
  -3.818  0.185E+00  0.185E+00  0.185E+00  0.185E+00
  -3.808  0.190E+00  0.190E+00  0.190E+00  0.190E+00
  -3.798  0.193E+00  0.193E+00  0.193E+00  0.193E+00
  -3.788  0.196E+00  0.196E+00  0.196E+00  0.196E+00
  -3.778  0.199E+00  0.199E+00  0.199E+00  0.199E+00
  -3.768  0.201E+00  0.201E+00  0.201E+00  0.201E+00
  -3.758  0.202E+00  0.202E+00  0.202E+00  0.202E+00
  -3.748  0.203E+00  0.203E+00  0.203E+00  0.203E+00
  -3.738  0.205E+00  0.205E+00  0.205E+00  0.205E+00
  -3.728  0.206E+00  0.206E+00  0.206E+00  0.206E+00
  -3.718  0.207E+00  0.207E+00  0.207E+00  0.207E+00
  -3.708  0.209E+00  0.209E+00  0.209E+00  0.209E+00
  -3.698  0.210E+00  0.210E+00  0.210E+00  0.210E+00
  -3.688  0.212E+00  0.212E+00  0.212E+00  0.212E+00
  -3.678  0.213E+00  0.213E+00  0.213E+00  0.213E+00
  -3.668  0.214E+00  0.214E+00  0.214E+00  0.214E+00
  -3.658  0.215E+00  0.215E+00  0.215E+00  0.215E+00
  -3.648  0.216E+00  0.216E+00  0.216E+00  0.216E+00
  -3.638  0.217E+00  0.217E+00  0.217E+00  0.217E+00
  -3.628  0.217E+00  0.217E+00  0.217E+00  0.217E+00
  -3.618  0.216E+00  0.216E+00  0.216E+00  0.216E+00
  -3.608  0.215E+00  0.215E+00  0.215E+00  0.215E+00
  -3.598  0.214E+00  0.214E+00  0.214E+00  0.214E+00
  -3.588  0.213E+00  0.213E+00  0.213E+00  0.213E+00
  -3.578  0.211E+00  0.211E+00  0.211E+00  0.211E+00
  -3.568  0.209E+00  0.209E+00  0.209E+00  0.209E+00
  -3.558  0.207E+00  0.207E+00  0.207E+00  0.207E+00
  -3.548  0.205E+00  0.205E+00  0.205E+00  0.205E+00
  -3.538  0.204E+00  0.204E+00  0.204E+00  0.204E+00
  -3.528  0.203E+00  0.203E+00  0.203E+00  0.203E+00
  -3.518  0.201E+00  0.201E+00  0.201E+00  0.201E+00
  -3.508  0.201E+00  0.201E+00  0.201E+00  0.201E+00
  -3.498  0.200E+00  0.200E+00  0.200E+00  0.200E+00
  -3.488  0.199E+00  0.199E+00  0.199E+00  0.199E+00
  -3.478  0.198E+00  0.198E+00  0.198E+00  0.198E+00
  -3.468  0.196E+00  0.196E+00  0.196E+00  0.196E+00
  -3.458  0.195E+00  0.195E+00  0.195E+00  0.195E+00
  -3.448  0.192E+00  0.192E+00  0.192E+00  0.192E+00
  -3.438  0.189E+00  0.189E+00  0.189E+00  0.189E+00
  -3.428  0.184E+00  0.184E+00  0.184E+00  0.184E+00
  -3.418  0.179E+00  0.179E+00  0.179E+00  0.179E+00
  -3.408  0.173E+00  0.173E+00  0.173E+00  0.173E+00
  -3.398  0.166E+00  0.166E+00  0.166E+00  0.166E+00
  -3.388  0.157E+00  0.157E+00  0.157E+00  0.157E+00
  -3.378  0.148E+00  0.148E+00  0.148E+00  0.148E+00
  -3.368  0.139E+00  0.139E+00  0.139E+00  0.139E+00
  -3.358  0.128E+00  0.128E+00  0.128E+00  0.128E+00
  -3.348  0.118E+00  0.118E+00  0.118E+00  0.118E+00
  -3.338  0.107E+00  0.107E+00  0.107E+00  0.107E+00
  -3.328  0.960E-01  0.960E-01  0.960E-01  0.960E-01
  -3.318  0.855E-01  0.855E-01  0.855E-01  0.855E-01
  -3.308  0.753E-01  0.753E-01  0.753E-01  0.753E-01
  -3.298  0.657E-01  0.657E-01  0.657E-01  0.657E-01
  -3.288  0.567E-01  0.567E-01  0.567E-01  0.567E-01
  -3.278  0.484E-01  0.484E-01  0.484E-01  0.484E-01
  -3.268  0.409E-01  0.409E-01  0.409E-01  0.409E-01
  -3.258  0.342E-01  0.342E-01  0.342E-01  0.342E-01
  -3.248  0.283E-01  0.283E-01  0.283E-01  0.283E-01
  -3.238  0.232E-01  0.232E-01  0.232E-01  0.232E-01
  -3.228  0.188E-01  0.188E-01  0.188E-01  0.188E-01
  -3.218  0.151E-01  0.151E-01  0.151E-01  0.151E-01
  -3.208  0.121E-01  0.121E-01  0.121E-01  0.121E-01
  -3.198  0.958E-02  0.958E-02  0.958E-02  0.958E-02
  -3.188  0.759E-02  0.759E-02  0.759E-02  0.759E-02
  -3.178  0.604E-02  0.604E-02  0.604E-02  0.604E-02
  -3.168  0.490E-02  0.490E-02  0.490E-02  0.490E-02
  -3.158  0.411E-02  0.411E-02  0.411E-02  0.411E-02
  -3.148  0.365E-02  0.365E-02  0.365E-02  0.365E-02
  -3.138  0.350E-02  0.350E-02  0.350E-02  0.350E-02
  -3.128  0.365E-02  0.365E-02  0.365E-02  0.365E-02
  -3.118  0.410E-02  0.410E-02  0.410E-02  0.410E-02
  -3.108  0.488E-02  0.488E-02  0.488E-02  0.488E-02
  -3.098  0.599E-02  0.599E-02  0.599E-02  0.599E-02
  -3.088  0.749E-02  0.749E-02  0.749E-02  0.749E-02
  -3.078  0.941E-02  0.941E-02  0.941E-02  0.941E-02
  -3.068  0.118E-01  0.118E-01  0.118E-01  0.118E-01
  -3.058  0.147E-01  0.147E-01  0.147E-01  0.147E-01
  -3.048  0.182E-01  0.182E-01  0.182E-01  0.182E-01
  -3.038  0.223E-01  0.223E-01  0.223E-01  0.223E-01
  -3.028  0.271E-01  0.271E-01  0.271E-01  0.271E-01
  -3.018  0.325E-01  0.325E-01  0.325E-01  0.325E-01
  -3.008  0.387E-01  0.387E-01  0.387E-01  0.387E-01
  -2.998  0.455E-01  0.455E-01  0.455E-01  0.455E-01
  -2.988  0.530E-01  0.530E-01  0.530E-01  0.530E-01
  -2.978  0.610E-01  0.610E-01  0.610E-01  0.610E-01
  -2.968  0.696E-01  0.696E-01  0.696E-01  0.696E-01
  -2.958  0.786E-01  0.786E-01  0.786E-01  0.786E-01
  -2.948  0.878E-01  0.878E-01  0.878E-01  0.878E-01
  -2.938  0.972E-01  0.972E-01  0.972E-01  0.972E-01
  -2.928  0.107E+00  0.107E+00  0.107E+00  0.107E+00
  -2.918  0.116E+00  0.116E+00  0.116E+00  0.116E+00
  -2.908  0.125E+00  0.125E+00  0.125E+00  0.125E+00
  -2.898  0.133E+00  0.133E+00  0.133E+00  0.133E+00
  -2.888  0.141E+00  0.141E+00  0.141E+00  0.141E+00
  -2.878  0.148E+00  0.148E+00  0.148E+00  0.148E+00
  -2.868  0.154E+00  0.154E+00  0.154E+00  0.154E+00
  -2.858  0.160E+00  0.160E+00  0.160E+00  0.160E+00
  -2.848  0.165E+00  0.165E+00  0.165E+00  0.165E+00
  -2.838  0.170E+00  0.170E+00  0.170E+00  0.170E+00
  -2.828  0.174E+00  0.174E+00  0.174E+00  0.174E+00
  -2.818  0.178E+00  0.178E+00  0.178E+00  0.178E+00
  -2.808  0.182E+00  0.182E+00  0.182E+00  0.182E+00
  -2.798  0.185E+00  0.185E+00  0.185E+00  0.185E+00
  -2.788  0.189E+00  0.189E+00  0.189E+00  0.189E+00
  -2.778  0.193E+00  0.193E+00  0.193E+00  0.193E+00
  -2.768  0.198E+00  0.198E+00  0.198E+00  0.198E+00
  -2.758  0.203E+00  0.203E+00  0.203E+00  0.203E+00
  -2.748  0.208E+00  0.208E+00  0.208E+00  0.208E+00
  -2.738  0.214E+00  0.214E+00  0.214E+00  0.214E+00
  -2.728  0.220E+00  0.220E+00  0.220E+00  0.220E+00
  -2.718  0.226E+00  0.226E+00  0.226E+00  0.226E+00
  -2.708  0.231E+00  0.231E+00  0.231E+00  0.231E+00
  -2.698  0.236E+00  0.236E+00  0.236E+00  0.236E+00
  -2.688  0.239E+00  0.239E+00  0.239E+00  0.239E+00
  -2.678  0.242E+00  0.242E+00  0.242E+00  0.242E+00
  -2.668  0.243E+00  0.243E+00  0.243E+00  0.243E+00
  -2.658  0.243E+00  0.243E+00  0.243E+00  0.243E+00
  -2.648  0.240E+00  0.240E+00  0.240E+00  0.240E+00
  -2.638  0.236E+00  0.236E+00  0.236E+00  0.236E+00
  -2.628  0.230E+00  0.230E+00  0.230E+00  0.230E+00
  -2.618  0.222E+00  0.222E+00  0.222E+00  0.222E+00
  -2.608  0.213E+00  0.213E+00  0.213E+00  0.213E+00
  -2.598  0.202E+00  0.202E+00  0.202E+00  0.202E+00
  -2.588  0.189E+00  0.189E+00  0.189E+00  0.189E+00
  -2.578  0.176E+00  0.176E+00  0.176E+00  0.176E+00
  -2.568  0.162E+00  0.162E+00  0.162E+00  0.162E+00
  -2.558  0.147E+00  0.147E+00  0.147E+00  0.147E+00
  -2.548  0.133E+00  0.133E+00  0.133E+00  0.133E+00
  -2.538  0.118E+00  0.118E+00  0.118E+00  0.118E+00
  -2.528  0.104E+00  0.104E+00  0.104E+00  0.104E+00
  -2.518  0.910E-01  0.910E-01  0.910E-01  0.910E-01
  -2.508  0.786E-01  0.786E-01  0.786E-01  0.786E-01
  -2.498  0.672E-01  0.672E-01  0.672E-01  0.672E-01
  -2.488  0.568E-01  0.568E-01  0.568E-01  0.568E-01
  -2.478  0.475E-01  0.475E-01  0.475E-01  0.475E-01
  -2.468  0.394E-01  0.394E-01  0.394E-01  0.394E-01
  -2.458  0.322E-01  0.322E-01  0.322E-01  0.322E-01
  -2.448  0.261E-01  0.261E-01  0.261E-01  0.261E-01
  -2.438  0.209E-01  0.209E-01  0.209E-01  0.209E-01
  -2.428  0.166E-01  0.166E-01  0.166E-01  0.166E-01
  -2.418  0.130E-01  0.130E-01  0.130E-01  0.130E-01
  -2.408  0.101E-01  0.101E-01  0.101E-01  0.101E-01
  -2.398  0.775E-02  0.775E-02  0.775E-02  0.775E-02
  -2.388  0.589E-02  0.589E-02  0.589E-02  0.589E-02
  -2.378  0.442E-02  0.442E-02  0.442E-02  0.442E-02
  -2.368  0.329E-02  0.329E-02  0.329E-02  0.329E-02
  -2.358  0.242E-02  0.242E-02  0.242E-02  0.242E-02
  -2.348  0.176E-02  0.176E-02  0.176E-02  0.176E-02
  -2.338  0.127E-02  0.127E-02  0.127E-02  0.127E-02
  -2.328  0.901E-03  0.901E-03  0.901E-03  0.901E-03
  -2.318  0.635E-03  0.635E-03  0.635E-03  0.635E-03
  -2.308  0.442E-03  0.442E-03  0.442E-03  0.442E-03
  -2.298  0.305E-03  0.305E-03  0.305E-03  0.305E-03
  -2.288  0.208E-03  0.208E-03  0.208E-03  0.208E-03
  -2.278  0.140E-03  0.140E-03  0.140E-03  0.140E-03
  -2.268  0.936E-04  0.936E-04  0.936E-04  0.936E-04
  -2.258  0.619E-04  0.619E-04  0.619E-04  0.619E-04
  -2.248  0.406E-04  0.406E-04  0.406E-04  0.406E-04
  -2.238  0.265E-04  0.265E-04  0.265E-04  0.265E-04
  -2.228  0.173E-04  0.173E-04  0.173E-04  0.173E-04
  -2.218  0.116E-04  0.116E-04  0.116E-04  0.116E-04
  -2.208  0.824E-05  0.824E-05  0.824E-05  0.824E-05
  -2.198  0.668E-05  0.668E-05  0.668E-05  0.668E-05
  -2.188  0.657E-05  0.657E-05  0.657E-05  0.657E-05
  -2.178  0.781E-05  0.781E-05  0.781E-05  0.781E-05
  -2.168  0.106E-04  0.106E-04  0.106E-04  0.106E-04
  -2.158  0.151E-04  0.151E-04  0.151E-04  0.151E-04
  -2.148  0.222E-04  0.222E-04  0.222E-04  0.222E-04
  -2.138  0.326E-04  0.326E-04  0.326E-04  0.326E-04
  -2.128  0.477E-04  0.477E-04  0.477E-04  0.477E-04
  -2.118  0.692E-04  0.692E-04  0.692E-04  0.692E-04
  -2.108  0.993E-04  0.993E-04  0.993E-04  0.993E-04
  -2.098  0.141E-03  0.141E-03  0.141E-03  0.141E-03
  -2.088  0.199E-03  0.199E-03  0.199E-03  0.199E-03
  -2.078  0.277E-03  0.277E-03  0.277E-03  0.277E-03
  -2.068  0.382E-03  0.382E-03  0.382E-03  0.382E-03
  -2.058  0.521E-03  0.521E-03  0.521E-03  0.521E-03
  -2.048  0.704E-03  0.704E-03  0.704E-03  0.704E-03
  -2.038  0.942E-03  0.942E-03  0.942E-03  0.942E-03
  -2.028  0.125E-02  0.125E-02  0.125E-02  0.125E-02
  -2.018  0.164E-02  0.164E-02  0.164E-02  0.164E-02
  -2.008  0.213E-02  0.213E-02  0.213E-02  0.213E-02
  -1.998  0.274E-02  0.274E-02  0.274E-02  0.274E-02
  -1.988  0.349E-02  0.349E-02  0.349E-02  0.349E-02
  -1.978  0.441E-02  0.441E-02  0.441E-02  0.441E-02
  -1.968  0.553E-02  0.553E-02  0.553E-02  0.553E-02
  -1.958  0.687E-02  0.687E-02  0.687E-02  0.687E-02
  -1.948  0.845E-02  0.845E-02  0.845E-02  0.845E-02
  -1.938  0.103E-01  0.103E-01  0.103E-01  0.103E-01
  -1.928  0.125E-01  0.125E-01  0.125E-01  0.125E-01
  -1.918  0.150E-01  0.150E-01  0.150E-01  0.150E-01
  -1.908  0.179E-01  0.179E-01  0.179E-01  0.179E-01
  -1.898  0.212E-01  0.212E-01  0.212E-01  0.212E-01
  -1.888  0.249E-01  0.249E-01  0.249E-01  0.249E-01
  -1.878  0.290E-01  0.290E-01  0.290E-01  0.290E-01
  -1.868  0.336E-01  0.336E-01  0.336E-01  0.336E-01
  -1.858  0.387E-01  0.387E-01  0.387E-01  0.387E-01
  -1.848  0.442E-01  0.442E-01  0.442E-01  0.442E-01
  -1.838  0.502E-01  0.502E-01  0.502E-01  0.502E-01
  -1.828  0.567E-01  0.567E-01  0.567E-01  0.567E-01
  -1.818  0.635E-01  0.635E-01  0.635E-01  0.635E-01
  -1.808  0.707E-01  0.707E-01  0.707E-01  0.707E-01
  -1.798  0.783E-01  0.783E-01  0.783E-01  0.783E-01
  -1.788  0.860E-01  0.860E-01  0.860E-01  0.860E-01
  -1.778  0.939E-01  0.939E-01  0.939E-01  0.939E-01
  -1.768  0.102E+00  0.102E+00  0.102E+00  0.102E+00
  -1.758  0.110E+00  0.110E+00  0.110E+00  0.110E+00
  -1.748  0.117E+00  0.117E+00  0.117E+00  0.117E+00
  -1.738  0.124E+00  0.124E+00  0.124E+00  0.124E+00
  -1.728  0.131E+00  0.131E+00  0.131E+00  0.131E+00
  -1.718  0.136E+00  0.136E+00  0.136E+00  0.136E+00
  -1.708  0.141E+00  0.141E+00  0.141E+00  0.141E+00
  -1.698  0.145E+00  0.145E+00  0.145E+00  0.145E+00
  -1.688  0.148E+00  0.148E+00  0.148E+00  0.148E+00
  -1.678  0.149E+00  0.149E+00  0.149E+00  0.149E+00
  -1.668  0.149E+00  0.149E+00  0.149E+00  0.149E+00
  -1.658  0.148E+00  0.148E+00  0.148E+00  0.148E+00
  -1.648  0.145E+00  0.145E+00  0.145E+00  0.145E+00
  -1.638  0.141E+00  0.141E+00  0.141E+00  0.141E+00
  -1.628  0.136E+00  0.136E+00  0.136E+00  0.136E+00
  -1.618  0.130E+00  0.130E+00  0.130E+00  0.130E+00
  -1.608  0.123E+00  0.123E+00  0.123E+00  0.123E+00
  -1.598  0.115E+00  0.115E+00  0.115E+00  0.115E+00
  -1.588  0.106E+00  0.106E+00  0.106E+00  0.106E+00
  -1.578  0.975E-01  0.975E-01  0.975E-01  0.975E-01
  -1.568  0.885E-01  0.885E-01  0.885E-01  0.885E-01
  -1.558  0.795E-01  0.794E-01  0.795E-01  0.794E-01
  -1.548  0.706E-01  0.706E-01  0.706E-01  0.706E-01
  -1.538  0.621E-01  0.621E-01  0.621E-01  0.621E-01
  -1.528  0.541E-01  0.541E-01  0.541E-01  0.541E-01
  -1.518  0.466E-01  0.466E-01  0.466E-01  0.466E-01
  -1.508  0.397E-01  0.397E-01  0.397E-01  0.397E-01
  -1.498  0.335E-01  0.335E-01  0.335E-01  0.335E-01
  -1.488  0.280E-01  0.280E-01  0.280E-01  0.280E-01
  -1.478  0.231E-01  0.231E-01  0.231E-01  0.231E-01
  -1.468  0.189E-01  0.189E-01  0.189E-01  0.189E-01
  -1.458  0.153E-01  0.153E-01  0.153E-01  0.153E-01
  -1.448  0.122E-01  0.122E-01  0.122E-01  0.122E-01
  -1.438  0.967E-02  0.967E-02  0.967E-02  0.967E-02
  -1.428  0.757E-02  0.757E-02  0.757E-02  0.757E-02
  -1.418  0.586E-02  0.586E-02  0.586E-02  0.586E-02
  -1.408  0.449E-02  0.449E-02  0.449E-02  0.449E-02
  -1.398  0.341E-02  0.341E-02  0.341E-02  0.341E-02
  -1.388  0.256E-02  0.256E-02  0.256E-02  0.256E-02
  -1.378  0.190E-02  0.190E-02  0.190E-02  0.190E-02
  -1.368  0.139E-02  0.139E-02  0.139E-02  0.139E-02
  -1.358  0.101E-02  0.101E-02  0.101E-02  0.101E-02
  -1.348  0.729E-03  0.729E-03  0.729E-03  0.729E-03
  -1.338  0.519E-03  0.519E-03  0.519E-03  0.519E-03
  -1.328  0.367E-03  0.367E-03  0.367E-03  0.367E-03
  -1.318  0.259E-03  0.259E-03  0.259E-03  0.259E-03
  -1.308  0.183E-03  0.183E-03  0.183E-03  0.183E-03
  -1.298  0.132E-03  0.132E-03  0.132E-03  0.132E-03
  -1.288  0.994E-04  0.994E-04  0.994E-04  0.994E-04
  -1.278  0.814E-04  0.814E-04  0.814E-04  0.814E-04
  -1.268  0.753E-04  0.753E-04  0.753E-04  0.753E-04
  -1.258  0.795E-04  0.795E-04  0.795E-04  0.795E-04
  -1.248  0.938E-04  0.938E-04  0.938E-04  0.938E-04
  -1.238  0.119E-03  0.119E-03  0.119E-03  0.119E-03
  -1.228  0.155E-03  0.155E-03  0.155E-03  0.155E-03
  -1.218  0.206E-03  0.206E-03  0.206E-03  0.206E-03
  -1.208  0.274E-03  0.274E-03  0.274E-03  0.274E-03
  -1.198  0.363E-03  0.363E-03  0.363E-03  0.363E-03
  -1.188  0.478E-03  0.478E-03  0.478E-03  0.478E-03
  -1.178  0.625E-03  0.625E-03  0.625E-03  0.625E-03
  -1.168  0.810E-03  0.810E-03  0.810E-03  0.810E-03
  -1.158  0.104E-02  0.104E-02  0.104E-02  0.104E-02
  -1.148  0.133E-02  0.133E-02  0.133E-02  0.133E-02
  -1.138  0.168E-02  0.168E-02  0.168E-02  0.168E-02
  -1.128  0.212E-02  0.212E-02  0.212E-02  0.212E-02
  -1.118  0.265E-02  0.265E-02  0.265E-02  0.265E-02
  -1.108  0.329E-02  0.329E-02  0.329E-02  0.329E-02
  -1.098  0.406E-02  0.406E-02  0.406E-02  0.406E-02
  -1.088  0.499E-02  0.499E-02  0.499E-02  0.499E-02
  -1.078  0.609E-02  0.609E-02  0.609E-02  0.609E-02
  -1.068  0.740E-02  0.740E-02  0.740E-02  0.740E-02
  -1.058  0.895E-02  0.895E-02  0.895E-02  0.895E-02
  -1.048  0.108E-01  0.108E-01  0.108E-01  0.108E-01
  -1.038  0.129E-01  0.129E-01  0.129E-01  0.129E-01
  -1.028  0.154E-01  0.154E-01  0.154E-01  0.154E-01
  -1.018  0.182E-01  0.182E-01  0.182E-01  0.182E-01
  -1.008  0.215E-01  0.215E-01  0.215E-01  0.215E-01
  -0.998  0.253E-01  0.253E-01  0.253E-01  0.253E-01
  -0.988  0.296E-01  0.296E-01  0.296E-01  0.296E-01
  -0.978  0.344E-01  0.344E-01  0.344E-01  0.344E-01
  -0.968  0.397E-01  0.397E-01  0.397E-01  0.397E-01
  -0.958  0.456E-01  0.456E-01  0.456E-01  0.456E-01
  -0.948  0.521E-01  0.521E-01  0.521E-01  0.521E-01
  -0.938  0.591E-01  0.591E-01  0.591E-01  0.591E-01
  -0.928  0.665E-01  0.665E-01  0.665E-01  0.665E-01
  -0.918  0.744E-01  0.744E-01  0.744E-01  0.744E-01
  -0.908  0.826E-01  0.826E-01  0.826E-01  0.826E-01
  -0.898  0.910E-01  0.910E-01  0.910E-01  0.910E-01
  -0.888  0.995E-01  0.995E-01  0.995E-01  0.995E-01
  -0.878  0.108E+00  0.108E+00  0.108E+00  0.108E+00
  -0.868  0.116E+00  0.116E+00  0.116E+00  0.116E+00
  -0.858  0.124E+00  0.124E+00  0.124E+00  0.124E+00
  -0.848  0.132E+00  0.132E+00  0.132E+00  0.132E+00
  -0.838  0.139E+00  0.139E+00  0.139E+00  0.139E+00
  -0.828  0.145E+00  0.145E+00  0.145E+00  0.145E+00
  -0.818  0.150E+00  0.150E+00  0.150E+00  0.150E+00
  -0.808  0.154E+00  0.154E+00  0.154E+00  0.154E+00
  -0.798  0.158E+00  0.158E+00  0.158E+00  0.158E+00
  -0.788  0.161E+00  0.161E+00  0.161E+00  0.161E+00
  -0.778  0.162E+00  0.162E+00  0.162E+00  0.162E+00
  -0.768  0.163E+00  0.163E+00  0.163E+00  0.163E+00
  -0.758  0.164E+00  0.164E+00  0.164E+00  0.164E+00
  -0.748  0.164E+00  0.164E+00  0.164E+00  0.164E+00
  -0.738  0.164E+00  0.164E+00  0.164E+00  0.164E+00
  -0.728  0.163E+00  0.163E+00  0.163E+00  0.163E+00
  -0.718  0.163E+00  0.163E+00  0.163E+00  0.163E+00
  -0.708  0.163E+00  0.163E+00  0.163E+00  0.163E+00
  -0.698  0.163E+00  0.163E+00  0.163E+00  0.163E+00
  -0.688  0.164E+00  0.164E+00  0.164E+00  0.164E+00
  -0.678  0.166E+00  0.166E+00  0.166E+00  0.166E+00
  -0.668  0.168E+00  0.168E+00  0.168E+00  0.168E+00
  -0.658  0.171E+00  0.171E+00  0.171E+00  0.171E+00
  -0.648  0.174E+00  0.174E+00  0.174E+00  0.174E+00
  -0.638  0.178E+00  0.178E+00  0.178E+00  0.178E+00
  -0.628  0.182E+00  0.182E+00  0.182E+00  0.182E+00
  -0.618  0.186E+00  0.186E+00  0.186E+00  0.186E+00
  -0.608  0.190E+00  0.190E+00  0.190E+00  0.190E+00
  -0.598  0.193E+00  0.193E+00  0.193E+00  0.193E+00
  -0.588  0.196E+00  0.196E+00  0.196E+00  0.196E+00
  -0.578  0.198E+00  0.198E+00  0.198E+00  0.198E+00
  -0.568  0.198E+00  0.198E+00  0.198E+00  0.198E+00
  -0.558  0.198E+00  0.198E+00  0.198E+00  0.198E+00
  -0.548  0.196E+00  0.196E+00  0.196E+00  0.196E+00
  -0.538  0.192E+00  0.192E+00  0.192E+00  0.192E+00
  -0.528  0.187E+00  0.187E+00  0.187E+00  0.187E+00
  -0.518  0.181E+00  0.181E+00  0.181E+00  0.181E+00
  -0.508  0.173E+00  0.173E+00  0.173E+00  0.173E+00
  -0.498  0.165E+00  0.165E+00  0.165E+00  0.165E+00
  -0.488  0.155E+00  0.155E+00  0.155E+00  0.155E+00
  -0.478  0.144E+00  0.144E+00  0.144E+00  0.144E+00
  -0.468  0.133E+00  0.133E+00  0.133E+00  0.133E+00
  -0.458  0.121E+00  0.121E+00  0.121E+00  0.121E+00
  -0.448  0.110E+00  0.110E+00  0.110E+00  0.110E+00
  -0.438  0.984E-01  0.984E-01  0.984E-01  0.984E-01
  -0.428  0.872E-01  0.872E-01  0.872E-01  0.872E-01
  -0.418  0.766E-01  0.766E-01  0.766E-01  0.766E-01
  -0.408  0.665E-01  0.665E-01  0.665E-01  0.665E-01
  -0.398  0.572E-01  0.572E-01  0.572E-01  0.572E-01
  -0.388  0.487E-01  0.487E-01  0.487E-01  0.487E-01
  -0.378  0.410E-01  0.410E-01  0.410E-01  0.410E-01
  -0.368  0.342E-01  0.342E-01  0.342E-01  0.342E-01
  -0.358  0.283E-01  0.283E-01  0.283E-01  0.283E-01
  -0.348  0.231E-01  0.231E-01  0.231E-01  0.231E-01
  -0.338  0.187E-01  0.187E-01  0.187E-01  0.187E-01
  -0.328  0.150E-01  0.150E-01  0.150E-01  0.150E-01
  -0.318  0.120E-01  0.120E-01  0.120E-01  0.120E-01
  -0.308  0.951E-02  0.951E-02  0.951E-02  0.951E-02
  -0.298  0.753E-02  0.753E-02  0.753E-02  0.753E-02
  -0.288  0.600E-02  0.600E-02  0.600E-02  0.600E-02
  -0.278  0.486E-02  0.486E-02  0.486E-02  0.486E-02
  -0.268  0.408E-02  0.408E-02  0.408E-02  0.408E-02
  -0.258  0.360E-02  0.360E-02  0.360E-02  0.360E-02
  -0.248  0.341E-02  0.341E-02  0.341E-02  0.341E-02
  -0.238  0.349E-02  0.349E-02  0.349E-02  0.349E-02
  -0.228  0.384E-02  0.384E-02  0.384E-02  0.384E-02
  -0.218  0.446E-02  0.446E-02  0.446E-02  0.446E-02
  -0.208  0.535E-02  0.535E-02  0.535E-02  0.535E-02
  -0.198  0.654E-02  0.654E-02  0.654E-02  0.654E-02
  -0.188  0.803E-02  0.803E-02  0.803E-02  0.803E-02
  -0.178  0.986E-02  0.986E-02  0.986E-02  0.986E-02
  -0.168  0.120E-01  0.120E-01  0.120E-01  0.120E-01
  -0.158  0.146E-01  0.146E-01  0.146E-01  0.146E-01
  -0.148  0.175E-01  0.175E-01  0.175E-01  0.175E-01
  -0.138  0.208E-01  0.208E-01  0.208E-01  0.208E-01
  -0.128  0.245E-01  0.245E-01  0.245E-01  0.245E-01
  -0.118  0.285E-01  0.285E-01  0.285E-01  0.285E-01
  -0.108  0.328E-01  0.328E-01  0.328E-01  0.328E-01
  -0.098  0.374E-01  0.374E-01  0.374E-01  0.374E-01
  -0.088  0.422E-01  0.422E-01  0.422E-01  0.422E-01
  -0.078  0.471E-01  0.471E-01  0.471E-01  0.471E-01
  -0.068  0.519E-01  0.519E-01  0.519E-01  0.519E-01
  -0.058  0.567E-01  0.567E-01  0.567E-01  0.567E-01
  -0.048  0.612E-01  0.612E-01  0.612E-01  0.612E-01
  -0.038  0.654E-01  0.654E-01  0.654E-01  0.654E-01
  -0.028  0.691E-01  0.691E-01  0.691E-01  0.691E-01
  -0.018  0.722E-01  0.722E-01  0.722E-01  0.722E-01
  -0.008  0.747E-01  0.747E-01  0.747E-01  0.747E-01
   0.002  0.765E-01  0.765E-01  0.765E-01  0.765E-01
   0.012  0.774E-01  0.774E-01  0.774E-01  0.774E-01
   0.022  0.775E-01  0.775E-01  0.775E-01  0.775E-01
   0.032  0.768E-01  0.768E-01  0.768E-01  0.768E-01
   0.042  0.753E-01  0.753E-01  0.753E-01  0.753E-01
   0.052  0.731E-01  0.731E-01  0.731E-01  0.731E-01
   0.062  0.702E-01  0.702E-01  0.702E-01  0.702E-01
   0.072  0.667E-01  0.667E-01  0.667E-01  0.667E-01
   0.082  0.629E-01  0.629E-01  0.629E-01  0.629E-01
   0.092  0.587E-01  0.587E-01  0.587E-01  0.587E-01
   0.102  0.543E-01  0.543E-01  0.543E-01  0.543E-01
   0.112  0.500E-01  0.500E-01  0.500E-01  0.500E-01
   0.122  0.457E-01  0.457E-01  0.457E-01  0.457E-01
   0.132  0.417E-01  0.417E-01  0.417E-01  0.417E-01
   0.142  0.380E-01  0.380E-01  0.380E-01  0.380E-01
   0.152  0.349E-01  0.349E-01  0.349E-01  0.349E-01
   0.162  0.323E-01  0.323E-01  0.323E-01  0.323E-01
   0.172  0.305E-01  0.305E-01  0.305E-01  0.305E-01
   0.182  0.293E-01  0.293E-01  0.293E-01  0.293E-01
   0.192  0.290E-01  0.290E-01  0.290E-01  0.290E-01
   0.202  0.295E-01  0.295E-01  0.295E-01  0.295E-01
   0.212  0.308E-01  0.308E-01  0.308E-01  0.308E-01
   0.222  0.330E-01  0.330E-01  0.330E-01  0.330E-01
   0.232  0.360E-01  0.360E-01  0.360E-01  0.360E-01
   0.242  0.398E-01  0.398E-01  0.398E-01  0.398E-01
   0.252  0.443E-01  0.443E-01  0.443E-01  0.443E-01
   0.262  0.495E-01  0.495E-01  0.495E-01  0.495E-01
   0.272  0.551E-01  0.551E-01  0.551E-01  0.551E-01
   0.282  0.612E-01  0.612E-01  0.612E-01  0.612E-01
   0.292  0.675E-01  0.675E-01  0.675E-01  0.675E-01
   0.302  0.739E-01  0.739E-01  0.739E-01  0.739E-01
   0.312  0.802E-01  0.802E-01  0.802E-01  0.802E-01
   0.322  0.862E-01  0.862E-01  0.862E-01  0.862E-01
   0.332  0.917E-01  0.917E-01  0.917E-01  0.917E-01
   0.342  0.967E-01  0.967E-01  0.967E-01  0.967E-01
   0.352  0.101E+00  0.101E+00  0.101E+00  0.101E+00
   0.362  0.104E+00  0.104E+00  0.104E+00  0.104E+00
   0.372  0.106E+00  0.106E+00  0.106E+00  0.106E+00
   0.382  0.107E+00  0.107E+00  0.107E+00  0.107E+00
   0.392  0.107E+00  0.107E+00  0.107E+00  0.107E+00
   0.402  0.106E+00  0.106E+00  0.106E+00  0.106E+00
   0.412  0.104E+00  0.104E+00  0.104E+00  0.104E+00
   0.422  0.101E+00  0.101E+00  0.101E+00  0.101E+00
   0.432  0.968E-01  0.968E-01  0.968E-01  0.968E-01
   0.442  0.919E-01  0.919E-01  0.919E-01  0.919E-01
   0.452  0.864E-01  0.864E-01  0.864E-01  0.864E-01
   0.462  0.805E-01  0.805E-01  0.805E-01  0.805E-01
   0.472  0.743E-01  0.743E-01  0.743E-01  0.743E-01
   0.482  0.681E-01  0.681E-01  0.681E-01  0.681E-01
   0.492  0.619E-01  0.619E-01  0.619E-01  0.619E-01
   0.502  0.559E-01  0.559E-01  0.559E-01  0.559E-01
   0.512  0.503E-01  0.503E-01  0.503E-01  0.503E-01
   0.522  0.452E-01  0.452E-01  0.452E-01  0.452E-01
   0.532  0.406E-01  0.406E-01  0.406E-01  0.406E-01
   0.542  0.365E-01  0.365E-01  0.365E-01  0.365E-01
   0.552  0.331E-01  0.331E-01  0.331E-01  0.331E-01
   0.562  0.302E-01  0.302E-01  0.302E-01  0.302E-01
   0.572  0.280E-01  0.280E-01  0.280E-01  0.280E-01
   0.582  0.263E-01  0.263E-01  0.263E-01  0.263E-01
   0.592  0.251E-01  0.251E-01  0.251E-01  0.251E-01
   0.602  0.243E-01  0.243E-01  0.243E-01  0.243E-01
   0.612  0.238E-01  0.238E-01  0.238E-01  0.238E-01
   0.622  0.236E-01  0.236E-01  0.236E-01  0.236E-01
   0.632  0.236E-01  0.236E-01  0.236E-01  0.236E-01
   0.642  0.238E-01  0.238E-01  0.238E-01  0.238E-01
   0.652  0.239E-01  0.239E-01  0.239E-01  0.239E-01
   0.662  0.240E-01  0.240E-01  0.240E-01  0.240E-01
   0.672  0.241E-01  0.241E-01  0.241E-01  0.241E-01
   0.682  0.240E-01  0.240E-01  0.240E-01  0.240E-01
   0.692  0.238E-01  0.238E-01  0.238E-01  0.238E-01
   0.702  0.234E-01  0.234E-01  0.234E-01  0.234E-01
   0.712  0.228E-01  0.228E-01  0.228E-01  0.228E-01
   0.722  0.221E-01  0.221E-01  0.221E-01  0.221E-01
   0.732  0.212E-01  0.212E-01  0.212E-01  0.212E-01
   0.742  0.202E-01  0.202E-01  0.202E-01  0.202E-01
   0.752  0.191E-01  0.191E-01  0.191E-01  0.191E-01
   0.762  0.179E-01  0.179E-01  0.179E-01  0.179E-01
   0.772  0.167E-01  0.167E-01  0.167E-01  0.167E-01
   0.782  0.156E-01  0.156E-01  0.156E-01  0.156E-01
   0.792  0.145E-01  0.145E-01  0.145E-01  0.145E-01
   0.802  0.136E-01  0.136E-01  0.136E-01  0.136E-01
   0.812  0.128E-01  0.128E-01  0.128E-01  0.128E-01
   0.822  0.122E-01  0.122E-01  0.122E-01  0.122E-01
   0.832  0.118E-01  0.118E-01  0.118E-01  0.118E-01
   0.842  0.116E-01  0.116E-01  0.116E-01  0.116E-01
   0.852  0.117E-01  0.117E-01  0.117E-01  0.117E-01
   0.862  0.120E-01  0.120E-01  0.120E-01  0.120E-01
   0.872  0.126E-01  0.126E-01  0.126E-01  0.126E-01
   0.882  0.134E-01  0.134E-01  0.134E-01  0.134E-01
   0.892  0.144E-01  0.144E-01  0.144E-01  0.144E-01
   0.902  0.155E-01  0.155E-01  0.155E-01  0.155E-01
   0.912  0.168E-01  0.168E-01  0.168E-01  0.168E-01
   0.922  0.183E-01  0.183E-01  0.183E-01  0.183E-01
   0.932  0.198E-01  0.198E-01  0.198E-01  0.198E-01
   0.942  0.213E-01  0.213E-01  0.213E-01  0.213E-01
   0.952  0.227E-01  0.227E-01  0.227E-01  0.227E-01
   0.962  0.241E-01  0.241E-01  0.241E-01  0.241E-01
   0.972  0.253E-01  0.253E-01  0.253E-01  0.253E-01
   0.982  0.263E-01  0.263E-01  0.263E-01  0.263E-01
   0.992  0.271E-01  0.271E-01  0.271E-01  0.271E-01
   1.002  0.277E-01  0.277E-01  0.277E-01  0.277E-01
   1.012  0.280E-01  0.280E-01  0.280E-01  0.280E-01
   1.022  0.280E-01  0.280E-01  0.280E-01  0.280E-01
   1.032  0.277E-01  0.277E-01  0.277E-01  0.277E-01
   1.042  0.271E-01  0.271E-01  0.271E-01  0.271E-01
   1.052  0.262E-01  0.262E-01  0.262E-01  0.262E-01
   1.062  0.251E-01  0.251E-01  0.251E-01  0.251E-01
   1.072  0.238E-01  0.238E-01  0.238E-01  0.238E-01
   1.082  0.223E-01  0.223E-01  0.223E-01  0.223E-01
   1.092  0.207E-01  0.207E-01  0.207E-01  0.207E-01
   1.102  0.190E-01  0.190E-01  0.190E-01  0.190E-01
   1.112  0.172E-01  0.172E-01  0.172E-01  0.172E-01
   1.122  0.155E-01  0.155E-01  0.155E-01  0.155E-01
   1.132  0.137E-01  0.137E-01  0.137E-01  0.137E-01
   1.142  0.121E-01  0.121E-01  0.121E-01  0.121E-01
   1.152  0.105E-01  0.105E-01  0.105E-01  0.105E-01
   1.162  0.904E-02  0.904E-02  0.904E-02  0.904E-02
   1.172  0.769E-02  0.769E-02  0.769E-02  0.769E-02
   1.182  0.648E-02  0.648E-02  0.648E-02  0.648E-02
   1.192  0.540E-02  0.540E-02  0.540E-02  0.540E-02
   1.202  0.446E-02  0.446E-02  0.446E-02  0.446E-02
   1.212  0.365E-02  0.365E-02  0.365E-02  0.365E-02
   1.222  0.297E-02  0.297E-02  0.297E-02  0.297E-02
   1.232  0.241E-02  0.241E-02  0.241E-02  0.241E-02
   1.242  0.196E-02  0.196E-02  0.196E-02  0.196E-02
   1.252  0.162E-02  0.162E-02  0.162E-02  0.162E-02
   1.262  0.137E-02  0.137E-02  0.137E-02  0.137E-02
   1.272  0.122E-02  0.122E-02  0.122E-02  0.122E-02
   1.282  0.116E-02  0.116E-02  0.116E-02  0.116E-02
   1.292  0.121E-02  0.121E-02  0.121E-02  0.121E-02
   1.302  0.135E-02  0.135E-02  0.135E-02  0.135E-02
   1.312  0.161E-02  0.161E-02  0.161E-02  0.161E-02
   1.322  0.200E-02  0.200E-02  0.200E-02  0.200E-02
   1.332  0.254E-02  0.254E-02  0.254E-02  0.254E-02
   1.342  0.326E-02  0.326E-02  0.326E-02  0.326E-02
   1.352  0.417E-02  0.417E-02  0.417E-02  0.417E-02
   1.362  0.531E-02  0.531E-02  0.531E-02  0.531E-02
   1.372  0.672E-02  0.672E-02  0.672E-02  0.672E-02
   1.382  0.842E-02  0.843E-02  0.842E-02  0.843E-02
   1.392  0.105E-01  0.105E-01  0.105E-01  0.105E-01
   1.402  0.129E-01  0.129E-01  0.129E-01  0.129E-01
   1.412  0.156E-01  0.156E-01  0.156E-01  0.156E-01
   1.422  0.188E-01  0.188E-01  0.188E-01  0.188E-01
   1.432  0.224E-01  0.224E-01  0.224E-01  0.224E-01
   1.442  0.263E-01  0.263E-01  0.263E-01  0.263E-01
   1.452  0.307E-01  0.307E-01  0.307E-01  0.307E-01
   1.462  0.354E-01  0.354E-01  0.354E-01  0.354E-01
   1.472  0.403E-01  0.403E-01  0.403E-01  0.403E-01
   1.482  0.455E-01  0.455E-01  0.455E-01  0.455E-01
   1.492  0.507E-01  0.507E-01  0.507E-01  0.507E-01
   1.502  0.560E-01  0.560E-01  0.560E-01  0.560E-01
   1.512  0.611E-01  0.611E-01  0.611E-01  0.611E-01
   1.522  0.660E-01  0.660E-01  0.660E-01  0.660E-01
   1.532  0.705E-01  0.705E-01  0.705E-01  0.705E-01
   1.542  0.746E-01  0.746E-01  0.746E-01  0.746E-01
   1.552  0.780E-01  0.780E-01  0.780E-01  0.780E-01
   1.562  0.806E-01  0.806E-01  0.806E-01  0.806E-01
   1.572  0.825E-01  0.825E-01  0.825E-01  0.825E-01
   1.582  0.835E-01  0.835E-01  0.835E-01  0.835E-01
   1.592  0.837E-01  0.837E-01  0.837E-01  0.837E-01
   1.602  0.829E-01  0.829E-01  0.829E-01  0.829E-01
   1.612  0.812E-01  0.812E-01  0.812E-01  0.812E-01
   1.622  0.787E-01  0.787E-01  0.787E-01  0.787E-01
   1.632  0.755E-01  0.755E-01  0.755E-01  0.755E-01
   1.642  0.717E-01  0.717E-01  0.717E-01  0.717E-01
   1.652  0.673E-01  0.673E-01  0.673E-01  0.673E-01
   1.662  0.625E-01  0.625E-01  0.625E-01  0.625E-01
   1.672  0.574E-01  0.574E-01  0.574E-01  0.574E-01
   1.682  0.522E-01  0.522E-01  0.522E-01  0.522E-01
   1.692  0.469E-01  0.469E-01  0.469E-01  0.469E-01
   1.702  0.418E-01  0.418E-01  0.418E-01  0.418E-01
   1.712  0.368E-01  0.368E-01  0.368E-01  0.368E-01
   1.722  0.321E-01  0.321E-01  0.321E-01  0.321E-01
   1.732  0.277E-01  0.277E-01  0.277E-01  0.277E-01
   1.742  0.237E-01  0.237E-01  0.237E-01  0.237E-01
   1.752  0.201E-01  0.201E-01  0.201E-01  0.201E-01
   1.762  0.170E-01  0.170E-01  0.170E-01  0.170E-01
   1.772  0.143E-01  0.143E-01  0.143E-01  0.143E-01
   1.782  0.120E-01  0.120E-01  0.120E-01  0.120E-01
   1.792  0.101E-01  0.101E-01  0.101E-01  0.101E-01
   1.802  0.866E-02  0.865E-02  0.866E-02  0.865E-02
   1.812  0.753E-02  0.753E-02  0.753E-02  0.753E-02
   1.822  0.674E-02  0.674E-02  0.674E-02  0.674E-02
   1.832  0.626E-02  0.626E-02  0.626E-02  0.626E-02
   1.842  0.604E-02  0.604E-02  0.604E-02  0.604E-02
   1.852  0.606E-02  0.606E-02  0.606E-02  0.606E-02
   1.862  0.630E-02  0.630E-02  0.630E-02  0.630E-02
   1.872  0.671E-02  0.671E-02  0.671E-02  0.671E-02
   1.882  0.728E-02  0.728E-02  0.728E-02  0.728E-02
   1.892  0.796E-02  0.796E-02  0.796E-02  0.796E-02
   1.902  0.874E-02  0.874E-02  0.874E-02  0.874E-02
   1.912  0.959E-02  0.959E-02  0.959E-02  0.959E-02
   1.922  0.105E-01  0.105E-01  0.105E-01  0.105E-01
   1.932  0.113E-01  0.113E-01  0.113E-01  0.113E-01
   1.942  0.122E-01  0.122E-01  0.122E-01  0.122E-01
   1.952  0.130E-01  0.130E-01  0.130E-01  0.130E-01
   1.962  0.137E-01  0.137E-01  0.137E-01  0.137E-01
   1.972  0.144E-01  0.144E-01  0.144E-01  0.144E-01
   1.982  0.149E-01  0.149E-01  0.149E-01  0.149E-01
   1.992  0.153E-01  0.153E-01  0.153E-01  0.153E-01
   2.002  0.155E-01  0.155E-01  0.155E-01  0.155E-01
   2.012  0.156E-01  0.156E-01  0.156E-01  0.156E-01
   2.022  0.156E-01  0.156E-01  0.156E-01  0.156E-01
   2.032  0.155E-01  0.155E-01  0.155E-01  0.155E-01
   2.042  0.152E-01  0.152E-01  0.152E-01  0.152E-01
   2.052  0.149E-01  0.149E-01  0.149E-01  0.149E-01
   2.062  0.146E-01  0.146E-01  0.146E-01  0.146E-01
   2.072  0.142E-01  0.142E-01  0.142E-01  0.142E-01
   2.082  0.139E-01  0.139E-01  0.139E-01  0.139E-01
   2.092  0.137E-01  0.137E-01  0.137E-01  0.137E-01
   2.102  0.136E-01  0.136E-01  0.136E-01  0.136E-01
   2.112  0.136E-01  0.136E-01  0.136E-01  0.136E-01
   2.122  0.138E-01  0.138E-01  0.138E-01  0.138E-01
   2.132  0.143E-01  0.143E-01  0.143E-01  0.143E-01
   2.142  0.150E-01  0.150E-01  0.150E-01  0.150E-01
   2.152  0.160E-01  0.160E-01  0.160E-01  0.160E-01
   2.162  0.172E-01  0.172E-01  0.172E-01  0.172E-01
   2.172  0.188E-01  0.188E-01  0.188E-01  0.188E-01
   2.182  0.206E-01  0.206E-01  0.206E-01  0.206E-01
   2.192  0.226E-01  0.226E-01  0.226E-01  0.226E-01
   2.202  0.249E-01  0.249E-01  0.249E-01  0.249E-01
   2.212  0.273E-01  0.273E-01  0.273E-01  0.273E-01
   2.222  0.299E-01  0.299E-01  0.299E-01  0.299E-01
   2.232  0.325E-01  0.325E-01  0.325E-01  0.325E-01
   2.242  0.352E-01  0.352E-01  0.352E-01  0.352E-01
   2.252  0.378E-01  0.378E-01  0.378E-01  0.378E-01
   2.262  0.403E-01  0.403E-01  0.403E-01  0.403E-01
   2.272  0.426E-01  0.426E-01  0.426E-01  0.426E-01
   2.282  0.447E-01  0.447E-01  0.447E-01  0.447E-01
   2.292  0.465E-01  0.465E-01  0.465E-01  0.465E-01
   2.302  0.480E-01  0.480E-01  0.480E-01  0.480E-01
   2.312  0.492E-01  0.492E-01  0.492E-01  0.492E-01
   2.322  0.500E-01  0.500E-01  0.500E-01  0.500E-01
   2.332  0.504E-01  0.504E-01  0.504E-01  0.504E-01
   2.342  0.505E-01  0.505E-01  0.505E-01  0.505E-01
   2.352  0.502E-01  0.502E-01  0.502E-01  0.502E-01
   2.362  0.495E-01  0.495E-01  0.495E-01  0.495E-01
   2.372  0.485E-01  0.485E-01  0.485E-01  0.485E-01
   2.382  0.472E-01  0.472E-01  0.472E-01  0.472E-01
   2.392  0.457E-01  0.457E-01  0.457E-01  0.457E-01
   2.402  0.439E-01  0.439E-01  0.439E-01  0.439E-01
   2.412  0.420E-01  0.420E-01  0.420E-01  0.420E-01
   2.422  0.399E-01  0.399E-01  0.399E-01  0.399E-01
   2.432  0.377E-01  0.377E-01  0.377E-01  0.377E-01
   2.442  0.354E-01  0.354E-01  0.354E-01  0.354E-01
   2.452  0.330E-01  0.330E-01  0.330E-01  0.330E-01
   2.462  0.306E-01  0.306E-01  0.306E-01  0.306E-01
   2.472  0.282E-01  0.282E-01  0.282E-01  0.282E-01
   2.482  0.259E-01  0.259E-01  0.259E-01  0.259E-01
   2.492  0.236E-01  0.236E-01  0.236E-01  0.236E-01
   2.502  0.213E-01  0.213E-01  0.213E-01  0.213E-01
   2.512  0.192E-01  0.192E-01  0.192E-01  0.192E-01
   2.522  0.171E-01  0.171E-01  0.171E-01  0.171E-01
   2.532  0.152E-01  0.152E-01  0.152E-01  0.152E-01
   2.542  0.133E-01  0.133E-01  0.133E-01  0.133E-01
   2.552  0.117E-01  0.117E-01  0.117E-01  0.117E-01
   2.562  0.101E-01  0.101E-01  0.101E-01  0.101E-01
   2.572  0.868E-02  0.868E-02  0.868E-02  0.868E-02
   2.582  0.740E-02  0.740E-02  0.740E-02  0.740E-02
   2.592  0.625E-02  0.625E-02  0.625E-02  0.625E-02
   2.602  0.524E-02  0.524E-02  0.524E-02  0.524E-02
   2.612  0.436E-02  0.436E-02  0.436E-02  0.436E-02
   2.622  0.360E-02  0.360E-02  0.360E-02  0.360E-02
   2.632  0.296E-02  0.296E-02  0.296E-02  0.296E-02
   2.642  0.242E-02  0.242E-02  0.242E-02  0.242E-02
   2.652  0.198E-02  0.198E-02  0.198E-02  0.198E-02
   2.662  0.163E-02  0.163E-02  0.163E-02  0.163E-02
   2.672  0.137E-02  0.137E-02  0.137E-02  0.137E-02
   2.682  0.118E-02  0.118E-02  0.118E-02  0.118E-02
   2.692  0.107E-02  0.107E-02  0.107E-02  0.107E-02
   2.702  0.104E-02  0.104E-02  0.104E-02  0.104E-02
   2.712  0.108E-02  0.108E-02  0.108E-02  0.108E-02
   2.722  0.120E-02  0.120E-02  0.120E-02  0.120E-02
   2.732  0.140E-02  0.140E-02  0.140E-02  0.140E-02
   2.742  0.169E-02  0.169E-02  0.169E-02  0.169E-02
   2.752  0.207E-02  0.207E-02  0.207E-02  0.207E-02
   2.762  0.256E-02  0.256E-02  0.256E-02  0.256E-02
   2.772  0.316E-02  0.316E-02  0.316E-02  0.316E-02
   2.782  0.388E-02  0.388E-02  0.388E-02  0.388E-02
   2.792  0.473E-02  0.473E-02  0.473E-02  0.473E-02
   2.802  0.571E-02  0.571E-02  0.571E-02  0.571E-02
   2.812  0.684E-02  0.684E-02  0.684E-02  0.684E-02
   2.822  0.811E-02  0.811E-02  0.811E-02  0.811E-02
   2.832  0.951E-02  0.951E-02  0.951E-02  0.951E-02
   2.842  0.110E-01  0.110E-01  0.110E-01  0.110E-01
   2.852  0.127E-01  0.127E-01  0.127E-01  0.127E-01
   2.862  0.144E-01  0.144E-01  0.144E-01  0.144E-01
   2.872  0.162E-01  0.162E-01  0.162E-01  0.162E-01
   2.882  0.180E-01  0.180E-01  0.180E-01  0.180E-01
   2.892  0.198E-01  0.198E-01  0.198E-01  0.198E-01
   2.902  0.216E-01  0.216E-01  0.216E-01  0.216E-01
   2.912  0.232E-01  0.232E-01  0.232E-01  0.232E-01
   2.922  0.247E-01  0.247E-01  0.247E-01  0.247E-01
   2.932  0.261E-01  0.261E-01  0.261E-01  0.261E-01
   2.942  0.272E-01  0.272E-01  0.272E-01  0.272E-01
   2.952  0.282E-01  0.282E-01  0.282E-01  0.282E-01
   2.962  0.288E-01  0.288E-01  0.288E-01  0.288E-01
   2.972  0.292E-01  0.292E-01  0.292E-01  0.292E-01
   2.982  0.293E-01  0.293E-01  0.293E-01  0.293E-01
   2.992  0.292E-01  0.292E-01  0.292E-01  0.292E-01
   3.002  0.288E-01  0.288E-01  0.288E-01  0.288E-01
   3.012  0.283E-01  0.283E-01  0.283E-01  0.283E-01
   3.022  0.276E-01  0.276E-01  0.276E-01  0.276E-01
   3.032  0.268E-01  0.268E-01  0.268E-01  0.268E-01
   3.042  0.259E-01  0.259E-01  0.259E-01  0.259E-01
   3.052  0.250E-01  0.250E-01  0.250E-01  0.250E-01
   3.062  0.243E-01  0.243E-01  0.243E-01  0.243E-01
   3.072  0.236E-01  0.236E-01  0.236E-01  0.236E-01
   3.082  0.230E-01  0.230E-01  0.230E-01  0.230E-01
   3.092  0.227E-01  0.227E-01  0.227E-01  0.227E-01
   3.102  0.226E-01  0.226E-01  0.226E-01  0.226E-01
   3.112  0.228E-01  0.228E-01  0.228E-01  0.228E-01
   3.122  0.232E-01  0.232E-01  0.232E-01  0.232E-01
   3.132  0.238E-01  0.238E-01  0.238E-01  0.238E-01
   3.142  0.246E-01  0.246E-01  0.246E-01  0.246E-01
   3.152  0.256E-01  0.256E-01  0.256E-01  0.256E-01
   3.162  0.267E-01  0.267E-01  0.267E-01  0.267E-01
   3.172  0.279E-01  0.279E-01  0.279E-01  0.279E-01
   3.182  0.292E-01  0.292E-01  0.292E-01  0.292E-01
   3.192  0.303E-01  0.303E-01  0.303E-01  0.303E-01
   3.202  0.314E-01  0.314E-01  0.314E-01  0.314E-01
   3.212  0.323E-01  0.323E-01  0.323E-01  0.323E-01
   3.222  0.330E-01  0.330E-01  0.330E-01  0.330E-01
   3.232  0.335E-01  0.335E-01  0.335E-01  0.335E-01
   3.242  0.336E-01  0.336E-01  0.336E-01  0.336E-01
   3.252  0.335E-01  0.335E-01  0.335E-01  0.335E-01
   3.262  0.330E-01  0.330E-01  0.330E-01  0.330E-01
   3.272  0.322E-01  0.322E-01  0.322E-01  0.322E-01
   3.282  0.312E-01  0.312E-01  0.312E-01  0.312E-01
   3.292  0.298E-01  0.298E-01  0.298E-01  0.298E-01
   3.302  0.283E-01  0.283E-01  0.283E-01  0.283E-01
   3.312  0.265E-01  0.265E-01  0.265E-01  0.265E-01
   3.322  0.246E-01  0.246E-01  0.246E-01  0.246E-01
   3.332  0.226E-01  0.226E-01  0.226E-01  0.226E-01
   3.342  0.207E-01  0.207E-01  0.207E-01  0.207E-01
   3.352  0.187E-01  0.187E-01  0.187E-01  0.187E-01
   3.362  0.168E-01  0.168E-01  0.168E-01  0.168E-01
   3.372  0.150E-01  0.150E-01  0.150E-01  0.150E-01
   3.382  0.134E-01  0.134E-01  0.134E-01  0.134E-01
   3.392  0.119E-01  0.119E-01  0.119E-01  0.119E-01
   3.402  0.107E-01  0.107E-01  0.107E-01  0.107E-01
   3.412  0.971E-02  0.971E-02  0.971E-02  0.971E-02
   3.422  0.897E-02  0.897E-02  0.897E-02  0.897E-02
   3.432  0.849E-02  0.849E-02  0.849E-02  0.849E-02
   3.442  0.827E-02  0.827E-02  0.827E-02  0.827E-02
   3.452  0.831E-02  0.831E-02  0.831E-02  0.831E-02
   3.462  0.861E-02  0.861E-02  0.861E-02  0.861E-02
   3.472  0.915E-02  0.915E-02  0.915E-02  0.915E-02
   3.482  0.993E-02  0.993E-02  0.993E-02  0.993E-02
   3.492  0.109E-01  0.109E-01  0.109E-01  0.109E-01
   3.502  0.121E-01  0.121E-01  0.121E-01  0.121E-01
   3.512  0.134E-01  0.134E-01  0.134E-01  0.134E-01
   3.522  0.149E-01  0.149E-01  0.149E-01  0.149E-01
   3.532  0.164E-01  0.164E-01  0.164E-01  0.164E-01
   3.542  0.181E-01  0.181E-01  0.181E-01  0.181E-01
   3.552  0.197E-01  0.197E-01  0.197E-01  0.197E-01
   3.562  0.213E-01  0.213E-01  0.213E-01  0.213E-01
   3.572  0.228E-01  0.228E-01  0.228E-01  0.228E-01
   3.582  0.242E-01  0.242E-01  0.242E-01  0.242E-01
   3.592  0.254E-01  0.254E-01  0.254E-01  0.254E-01
   3.602  0.264E-01  0.264E-01  0.264E-01  0.264E-01
   3.612  0.272E-01  0.272E-01  0.272E-01  0.272E-01
   3.622  0.278E-01  0.278E-01  0.278E-01  0.278E-01
   3.632  0.281E-01  0.281E-01  0.281E-01  0.281E-01
   3.642  0.281E-01  0.281E-01  0.281E-01  0.281E-01
   3.652  0.278E-01  0.278E-01  0.278E-01  0.278E-01
   3.662  0.273E-01  0.273E-01  0.273E-01  0.273E-01
   3.672  0.266E-01  0.266E-01  0.266E-01  0.266E-01
   3.682  0.257E-01  0.257E-01  0.257E-01  0.257E-01
   3.692  0.245E-01  0.245E-01  0.245E-01  0.245E-01
   3.702  0.233E-01  0.233E-01  0.233E-01  0.233E-01
   3.712  0.219E-01  0.219E-01  0.219E-01  0.219E-01
   3.722  0.205E-01  0.205E-01  0.205E-01  0.205E-01
   3.732  0.191E-01  0.191E-01  0.191E-01  0.191E-01
   3.742  0.178E-01  0.178E-01  0.178E-01  0.178E-01
   3.752  0.165E-01  0.165E-01  0.165E-01  0.165E-01
   3.762  0.154E-01  0.154E-01  0.154E-01  0.154E-01
   3.772  0.144E-01  0.144E-01  0.144E-01  0.144E-01
   3.782  0.136E-01  0.136E-01  0.136E-01  0.136E-01
   3.792  0.131E-01  0.131E-01  0.131E-01  0.131E-01
   3.802  0.128E-01  0.128E-01  0.128E-01  0.128E-01
   3.812  0.129E-01  0.129E-01  0.129E-01  0.129E-01
   3.822  0.132E-01  0.132E-01  0.132E-01  0.132E-01
   3.832  0.138E-01  0.138E-01  0.138E-01  0.138E-01
   3.842  0.148E-01  0.148E-01  0.148E-01  0.148E-01
   3.852  0.160E-01  0.160E-01  0.160E-01  0.160E-01
   3.862  0.175E-01  0.175E-01  0.175E-01  0.175E-01
   3.872  0.193E-01  0.193E-01  0.193E-01  0.193E-01
   3.882  0.213E-01  0.213E-01  0.213E-01  0.213E-01
   3.892  0.236E-01  0.236E-01  0.236E-01  0.236E-01
   3.902  0.260E-01  0.260E-01  0.260E-01  0.260E-01
   3.912  0.284E-01  0.284E-01  0.284E-01  0.284E-01
   3.922  0.310E-01  0.310E-01  0.310E-01  0.310E-01
   3.932  0.335E-01  0.335E-01  0.335E-01  0.335E-01
   3.942  0.359E-01  0.359E-01  0.359E-01  0.359E-01
   3.952  0.382E-01  0.382E-01  0.382E-01  0.382E-01
   3.962  0.402E-01  0.402E-01  0.402E-01  0.402E-01
   3.972  0.420E-01  0.420E-01  0.420E-01  0.420E-01
   3.982  0.434E-01  0.434E-01  0.434E-01  0.434E-01
   3.992  0.444E-01  0.444E-01  0.444E-01  0.444E-01
   4.002  0.451E-01  0.451E-01  0.451E-01  0.451E-01
   4.012  0.452E-01  0.452E-01  0.452E-01  0.452E-01
   4.022  0.450E-01  0.450E-01  0.450E-01  0.450E-01
   4.032  0.443E-01  0.443E-01  0.443E-01  0.443E-01
   4.042  0.432E-01  0.432E-01  0.432E-01  0.432E-01
   4.052  0.417E-01  0.417E-01  0.417E-01  0.417E-01
   4.062  0.398E-01  0.398E-01  0.398E-01  0.398E-01
   4.072  0.377E-01  0.377E-01  0.377E-01  0.377E-01
   4.082  0.353E-01  0.353E-01  0.353E-01  0.353E-01
   4.092  0.327E-01  0.327E-01  0.327E-01  0.327E-01
   4.102  0.300E-01  0.300E-01  0.300E-01  0.300E-01
   4.112  0.273E-01  0.273E-01  0.273E-01  0.273E-01
   4.122  0.245E-01  0.245E-01  0.245E-01  0.245E-01
   4.132  0.219E-01  0.219E-01  0.219E-01  0.219E-01
   4.142  0.193E-01  0.193E-01  0.193E-01  0.193E-01
   4.152  0.168E-01  0.168E-01  0.168E-01  0.168E-01
   4.162  0.145E-01  0.145E-01  0.145E-01  0.145E-01
   4.172  0.124E-01  0.124E-01  0.124E-01  0.124E-01
   4.182  0.105E-01  0.105E-01  0.105E-01  0.105E-01
   4.192  0.879E-02  0.879E-02  0.879E-02  0.879E-02
   4.202  0.729E-02  0.729E-02  0.729E-02  0.729E-02
   4.212  0.598E-02  0.598E-02  0.598E-02  0.598E-02
   4.222  0.485E-02  0.485E-02  0.485E-02  0.485E-02
   4.232  0.390E-02  0.390E-02  0.390E-02  0.390E-02
   4.242  0.310E-02  0.310E-02  0.310E-02  0.310E-02
   4.252  0.244E-02  0.244E-02  0.244E-02  0.244E-02
   4.262  0.190E-02  0.190E-02  0.190E-02  0.190E-02
   4.272  0.147E-02  0.147E-02  0.147E-02  0.147E-02
   4.282  0.112E-02  0.112E-02  0.112E-02  0.112E-02
   4.292  0.845E-03  0.845E-03  0.845E-03  0.845E-03
   4.302  0.632E-03  0.632E-03  0.632E-03  0.632E-03
   4.312  0.467E-03  0.467E-03  0.467E-03  0.467E-03
   4.322  0.342E-03  0.342E-03  0.342E-03  0.342E-03
   4.332  0.248E-03  0.248E-03  0.248E-03  0.248E-03
   4.342  0.177E-03  0.177E-03  0.177E-03  0.177E-03
   4.352  0.126E-03  0.126E-03  0.126E-03  0.126E-03
   4.362  0.883E-04  0.883E-04  0.883E-04  0.883E-04
   4.372  0.613E-04  0.613E-04  0.613E-04  0.613E-04
   4.382  0.421E-04  0.421E-04  0.421E-04  0.421E-04
   4.392  0.286E-04  0.286E-04  0.286E-04  0.286E-04
   4.402  0.192E-04  0.192E-04  0.192E-04  0.192E-04
   4.412  0.128E-04  0.128E-04  0.128E-04  0.128E-04
   4.422  0.843E-05  0.843E-05  0.843E-05  0.843E-05
   4.432  0.549E-05  0.549E-05  0.549E-05  0.549E-05
   4.442  0.354E-05  0.354E-05  0.354E-05  0.354E-05
   4.452  0.226E-05  0.226E-05  0.226E-05  0.226E-05
   4.462  0.143E-05  0.143E-05  0.143E-05  0.143E-05
   4.472  0.890E-06  0.890E-06  0.890E-06  0.890E-06
   4.482  0.550E-06  0.550E-06  0.550E-06  0.550E-06
   4.492  0.336E-06  0.336E-06  0.336E-06  0.336E-06
   4.502  0.203E-06  0.203E-06  0.203E-06  0.203E-06
   4.512  0.122E-06  0.122E-06  0.122E-06  0.122E-06
   4.522  0.720E-07  0.720E-07  0.720E-07  0.720E-07
   4.532  0.422E-07  0.422E-07  0.422E-07  0.422E-07
   4.542  0.244E-07  0.244E-07  0.244E-07  0.244E-07
   4.552  0.140E-07  0.140E-07  0.140E-07  0.140E-07
   4.562  0.795E-08  0.795E-08  0.795E-08  0.795E-08
   4.572  0.446E-08  0.446E-08  0.446E-08  0.446E-08
   4.582  0.247E-08  0.247E-08  0.247E-08  0.247E-08
   4.592  0.136E-08  0.136E-08  0.136E-08  0.136E-08
   4.602  0.739E-09  0.739E-09  0.739E-09  0.739E-09
   4.612  0.397E-09  0.397E-09  0.397E-09  0.397E-09
   4.622  0.211E-09  0.211E-09  0.211E-09  0.211E-09
   4.632  0.111E-09  0.111E-09  0.111E-09  0.111E-09
   4.642  0.578E-10  0.578E-10  0.578E-10  0.578E-10
   4.652  0.298E-10  0.298E-10  0.298E-10  0.298E-10
   4.662  0.152E-10  0.152E-10  0.152E-10  0.152E-10
   4.672  0.765E-11  0.765E-11  0.765E-11  0.765E-11
   4.682  0.376E-11  0.376E-11  0.376E-11  0.376E-11
   4.692  0.186E-11  0.186E-11  0.186E-11  0.186E-11
   4.702  0.912E-12  0.912E-12  0.912E-12  0.912E-12
   4.712  0.445E-12  0.445E-12  0.445E-12  0.445E-12
   4.722  0.218E-12  0.218E-12  0.218E-12  0.218E-12
   4.732  0.960E-14  0.954E-14  0.960E-14  0.954E-14
   4.742  0.108E-13  0.106E-13  0.108E-13  0.106E-13
   4.752  0.120E-13  0.117E-13  0.120E-13  0.117E-13
   4.762  0.133E-13  0.128E-13  0.133E-13  0.128E-13
   4.772  0.145E-13  0.139E-13  0.145E-13  0.139E-13
   4.782  0.156E-13  0.149E-13  0.156E-13  0.149E-13
   4.792  0.166E-13  0.158E-13  0.166E-13  0.158E-13
   4.802  0.175E-13  0.166E-13  0.175E-13  0.166E-13
   4.812  0.183E-13  0.172E-13  0.183E-13  0.172E-13
   4.822  0.189E-13  0.177E-13  0.189E-13  0.177E-13
   4.832  0.193E-13  0.180E-13  0.193E-13  0.180E-13
   4.842  0.195E-13  0.182E-13  0.195E-13  0.182E-13
   4.852  0.196E-13  0.181E-13  0.196E-13  0.181E-13
   4.862  0.193E-13  0.179E-13  0.193E-13  0.179E-13
   4.872  0.189E-13  0.174E-13  0.189E-13  0.174E-13
   4.882  0.183E-13  0.168E-13  0.183E-13  0.168E-13
   4.892  0.176E-13  0.161E-13  0.176E-13  0.161E-13
   4.902  0.166E-13  0.152E-13  0.166E-13  0.152E-13
   4.912  0.156E-13  0.143E-13  0.156E-13  0.143E-13
   4.922  0.145E-13  0.132E-13  0.145E-13  0.132E-13
   4.932  0.133E-13  0.121E-13  0.133E-13  0.121E-13
   4.942  0.120E-13  0.110E-13  0.120E-13  0.110E-13
   4.952  0.108E-13  0.983E-14  0.108E-13  0.983E-14
   4.962  0.961E-14  0.872E-14  0.961E-14  0.872E-14
   4.972  0.845E-14  0.766E-14  0.845E-14  0.766E-14
   4.982  0.734E-14  0.665E-14  0.734E-14  0.665E-14
   4.992  0.632E-14  0.572E-14  0.632E-14  0.572E-14
   5.002  0.538E-14  0.487E-14  0.538E-14  0.487E-14
   5.012  0.453E-14  0.409E-14  0.453E-14  0.409E-14
   5.022  0.378E-14  0.341E-14  0.378E-14  0.341E-14
   5.032  0.312E-14  0.281E-14  0.312E-14  0.281E-14
   5.042  0.255E-14  0.229E-14  0.255E-14  0.229E-14
   5.052  0.206E-14  0.185E-14  0.206E-14  0.185E-14
   5.062  0.165E-14  0.148E-14  0.165E-14  0.148E-14
   5.072  0.131E-14  0.117E-14  0.131E-14  0.117E-14
   5.082  0.102E-14  0.917E-15  0.102E-14  0.917E-15
   5.092  0.796E-15  0.711E-15  0.796E-15  0.711E-15
   5.102  0.614E-15  0.547E-15  0.614E-15  0.547E-15
   5.112  0.469E-15  0.416E-15  0.469E-15  0.416E-15
   5.122  0.355E-15  0.315E-15  0.355E-15  0.315E-15
   5.132  0.267E-15  0.236E-15  0.267E-15  0.236E-15
   5.142  0.200E-15  0.177E-15  0.200E-15  0.177E-15
   5.152  0.149E-15  0.132E-15  0.149E-15  0.132E-15
   5.162  0.112E-15  0.100E-15  0.112E-15  0.100E-15
   5.172  0.845E-16  0.780E-16  0.845E-16  0.780E-16
   5.182  0.658E-16  0.647E-16  0.658E-16  0.647E-16
   5.192  0.541E-16  0.593E-16  0.541E-16  0.593E-16
   5.202  0.487E-16  0.619E-16  0.487E-16  0.619E-16
   5.212  0.495E-16  0.735E-16  0.495E-16  0.735E-16
   5.222  0.568E-16  0.958E-16  0.568E-16  0.958E-16
   5.232  0.718E-16  0.132E-15  0.718E-16  0.132E-15
   5.242  0.964E-16  0.187E-15  0.964E-16  0.187E-15
   5.252  0.133E-15  0.266E-15  0.133E-15  0.266E-15
   5.262  0.187E-15  0.378E-15  0.187E-15  0.378E-15
   5.272  0.261E-15  0.534E-15  0.261E-15  0.534E-15
   5.282  0.364E-15  0.748E-15  0.364E-15  0.748E-15
   5.292  0.503E-15  0.104E-14  0.503E-15  0.104E-14
   5.302  0.690E-15  0.143E-14  0.690E-15  0.143E-14
   5.312  0.935E-15  0.194E-14  0.935E-15  0.194E-14
   5.322  0.126E-14  0.260E-14  0.126E-14  0.260E-14
   5.332  0.167E-14  0.346E-14  0.167E-14  0.346E-14
   5.342  0.219E-14  0.456E-14  0.219E-14  0.456E-14
   5.352  0.285E-14  0.593E-14  0.285E-14  0.593E-14
   5.362  0.367E-14  0.764E-14  0.367E-14  0.764E-14
   5.372  0.468E-14  0.974E-14  0.468E-14  0.974E-14
   5.382  0.589E-14  0.123E-13  0.589E-14  0.123E-13
   5.392  0.734E-14  0.153E-13  0.734E-14  0.153E-13
   5.402  0.905E-14  0.189E-13  0.905E-14  0.189E-13
   5.412  0.110E-13  0.230E-13  0.110E-13  0.230E-13
   5.422  0.133E-13  0.278E-13  0.133E-13  0.278E-13
   5.432  0.159E-13  0.332E-13  0.159E-13  0.332E-13
   5.442  0.188E-13  0.392E-13  0.188E-13  0.392E-13
   5.452  0.219E-13  0.458E-13  0.219E-13  0.458E-13
   5.462  0.254E-13  0.530E-13  0.254E-13  0.530E-13
   5.472  0.290E-13  0.606E-13  0.290E-13  0.606E-13
   5.482  0.328E-13  0.685E-13  0.328E-13  0.685E-13
   5.492  0.367E-13  0.767E-13  0.367E-13  0.767E-13
   5.502  0.406E-13  0.849E-13  0.406E-13  0.849E-13
   5.512  0.445E-13  0.930E-13  0.445E-13  0.930E-13
   5.522  0.482E-13  0.101E-12  0.482E-13  0.101E-12
   5.532  0.516E-13  0.108E-12  0.516E-13  0.108E-12
   5.542  0.547E-13  0.114E-12  0.547E-13  0.114E-12
   5.552  0.574E-13  0.120E-12  0.574E-13  0.120E-12
   5.562  0.596E-13  0.125E-12  0.596E-13  0.125E-12
   5.572  0.612E-13  0.128E-12  0.612E-13  0.128E-12
   5.582  0.621E-13  0.130E-12  0.621E-13  0.130E-12
   5.592  0.624E-13  0.130E-12  0.624E-13  0.130E-12
   5.602  0.620E-13  0.130E-12  0.620E-13  0.130E-12
   5.612  0.609E-13  0.127E-12  0.609E-13  0.127E-12
   5.622  0.593E-13  0.124E-12  0.593E-13  0.124E-12
   5.632  0.570E-13  0.119E-12  0.570E-13  0.119E-12
   5.642  0.543E-13  0.113E-12  0.543E-13  0.113E-12
   5.652  0.511E-13  0.107E-12  0.511E-13  0.107E-12
   5.662  0.476E-13  0.995E-13  0.476E-13  0.995E-13
   5.672  0.439E-13  0.917E-13  0.439E-13  0.917E-13
   5.682  0.400E-13  0.836E-13  0.400E-13  0.836E-13
   5.692  0.362E-13  0.754E-13  0.362E-13  0.754E-13
   5.702  0.323E-13  0.673E-13  0.323E-13  0.673E-13
   5.712  0.287E-13  0.594E-13  0.287E-13  0.594E-13
   5.722  0.252E-13  0.519E-13  0.252E-13  0.519E-13
   5.732  0.220E-13  0.448E-13  0.220E-13  0.448E-13
   5.742  0.191E-13  0.384E-13  0.191E-13  0.384E-13
   5.752  0.166E-13  0.325E-13  0.166E-13  0.325E-13
   5.762  0.145E-13  0.274E-13  0.145E-13  0.274E-13
   5.772  0.128E-13  0.228E-13  0.128E-13  0.228E-13
   5.782  0.116E-13  0.189E-13  0.116E-13  0.189E-13
   5.792  0.109E-13  0.157E-13  0.109E-13  0.157E-13
   5.802  0.106E-13  0.130E-13  0.106E-13  0.130E-13
   5.812  0.108E-13  0.109E-13  0.108E-13  0.109E-13
   5.822  0.116E-13  0.923E-14  0.116E-13  0.923E-14
   5.832  0.130E-13  0.808E-14  0.130E-13  0.808E-14
   5.842  0.149E-13  0.734E-14  0.149E-13  0.734E-14
   5.852  0.173E-13  0.699E-14  0.173E-13  0.699E-14
   5.862  0.204E-13  0.697E-14  0.204E-13  0.697E-14
   5.872  0.241E-13  0.727E-14  0.241E-13  0.727E-14
   5.882  0.284E-13  0.783E-14  0.284E-13  0.783E-14
   5.892  0.333E-13  0.864E-14  0.333E-13  0.864E-14
   5.902  0.387E-13  0.966E-14  0.387E-13  0.966E-14
   5.912  0.446E-13  0.109E-13  0.446E-13  0.109E-13
   5.922  0.510E-13  0.122E-13  0.510E-13  0.122E-13
   5.932  0.576E-13  0.137E-13  0.576E-13  0.137E-13
   5.942  0.644E-13  0.152E-13  0.644E-13  0.152E-13
   5.952  0.714E-13  0.167E-13  0.714E-13  0.167E-13
   5.962  0.782E-13  0.183E-13  0.782E-13  0.183E-13
   5.972  0.847E-13  0.198E-13  0.847E-13  0.198E-13
   5.982  0.908E-13  0.212E-13  0.908E-13  0.212E-13
   5.992  0.964E-13  0.225E-13  0.964E-13  0.225E-13
   6.002  0.101E-12  0.236E-13  0.101E-12  0.236E-13
   6.012  0.105E-12  0.245E-13  0.105E-12  0.245E-13
   6.022  0.108E-12  0.252E-13  0.108E-12  0.252E-13
   6.032  0.110E-12  0.256E-13  0.110E-12  0.256E-13
   6.042  0.110E-12  0.257E-13  0.110E-12  0.257E-13
   6.052  0.109E-12  0.255E-13  0.109E-12  0.255E-13
   6.062  0.108E-12  0.251E-13  0.108E-12  0.251E-13
   6.072  0.105E-12  0.244E-13  0.105E-12  0.244E-13
   6.082  0.101E-12  0.235E-13  0.101E-12  0.235E-13
   6.092  0.960E-13  0.224E-13  0.960E-13  0.224E-13
   6.102  0.904E-13  0.211E-13  0.904E-13  0.211E-13
   6.112  0.843E-13  0.197E-13  0.843E-13  0.197E-13
   6.122  0.777E-13  0.181E-13  0.777E-13  0.181E-13
   6.132  0.708E-13  0.165E-13  0.708E-13  0.165E-13
   6.142  0.639E-13  0.149E-13  0.639E-13  0.149E-13
   6.152  0.570E-13  0.133E-13  0.570E-13  0.133E-13
   6.162  0.504E-13  0.117E-13  0.504E-13  0.117E-13
   6.172  0.440E-13  0.103E-13  0.440E-13  0.103E-13
   6.182  0.380E-13  0.886E-14  0.380E-13  0.886E-14
   6.192  0.325E-13  0.758E-14  0.325E-13  0.758E-14
   6.202  0.275E-13  0.640E-14  0.275E-13  0.640E-14
   6.212  0.230E-13  0.536E-14  0.230E-13  0.536E-14
   6.222  0.190E-13  0.443E-14  0.190E-13  0.443E-14
   6.232  0.156E-13  0.363E-14  0.156E-13  0.363E-14
   6.242  0.126E-13  0.294E-14  0.126E-13  0.294E-14
   6.252  0.101E-13  0.235E-14  0.101E-13  0.235E-14
   6.262  0.799E-14  0.186E-14  0.799E-14  0.186E-14
   6.272  0.627E-14  0.146E-14  0.627E-14  0.146E-14
   6.282  0.486E-14  0.113E-14  0.486E-14  0.113E-14
   6.292  0.373E-14  0.870E-15  0.373E-14  0.870E-15
   6.302  0.283E-14  0.660E-15  0.283E-14  0.660E-15
   6.312  0.212E-14  0.496E-15  0.212E-14  0.496E-15
   6.322  0.158E-14  0.368E-15  0.158E-14  0.368E-15
   6.332  0.116E-14  0.270E-15  0.116E-14  0.270E-15
   6.342  0.842E-15  0.197E-15  0.842E-15  0.197E-15
   6.352  0.606E-15  0.141E-15  0.606E-15  0.141E-15
   6.362  0.431E-15  0.101E-15  0.431E-15  0.101E-15
   6.372  0.303E-15  0.707E-16  0.303E-15  0.707E-16
   6.382  0.211E-15  0.492E-16  0.211E-15  0.492E-16
   6.392  0.145E-15  0.339E-16  0.145E-15  0.339E-16
   6.402  0.990E-16  0.231E-16  0.990E-16  0.231E-16
   6.412  0.667E-16  0.156E-16  0.667E-16  0.156E-16
   6.422  0.445E-16  0.104E-16  0.445E-16  0.104E-16
   6.432  0.293E-16  0.684E-17  0.293E-16  0.684E-17
   6.442  0.191E-16  0.446E-17  0.191E-16  0.446E-17
   6.452  0.123E-16  0.288E-17  0.123E-16  0.288E-17
